Time:64Hz,Epoch,AF3,Event Id,Event Date,Event Duration
0.0000000000,0,0.7182565012,,,
0.0156250000,0,4.0999677464,,,
0.0312500000,0,0.7786387538,,,
0.0468750000,0,-6.8809401563,,,
0.0625000000,0,-1.1384358990,,,
0.0781250000,0,7.1902894283,,,
0.0937500000,0,6.0869349704,,,
0.1093750000,0,-1.4085437805,,,
0.1250000000,0,-2.0013366504,,,
0.1406250000,0,-0.6912544760,,,
0.1562500000,0,-7.2365133451,,,
0.1718750000,0,-8.1913420452,,,
0.1875000000,0,-7.5387854921,,,
0.2031250000,0,-4.9366137524,,,
0.2187500000,0,4.2761868757,,,
0.2343750000,0,5.4844732868,,,
0.2500000000,1,3.0715884198,,,
0.2656250000,1,1.1660956873,,,
0.2812500000,1,-1.8895403478,,,
0.2968750000,1,0.6456287027,33024,0.2998046875,0.0000000000
0.3125000000,1,4.7308733148,,,
0.3281250000,1,5.3128451523,,,
0.3437500000,1,-1.1402588560,,,
0.3593750000,1,-5.2609542748,,,
0.3750000000,1,-0.2391388363,,,
0.3906250000,1,-1.4920296642,,,
0.4062500000,1,-3.7633619041,,,
0.4218750000,1,-2.2104905659,,,
0.4375000000,1,-1.9164225617,,,
0.4531250000,1,2.5048477574,,,
0.4687500000,1,-0.1588343024,,,
0.4843750000,1,-3.5199196288,,,
0.5000000000,2,2.3666714764,,,
0.5156250000,2,-2.4641351144,,,
0.5312500000,2,-16.1369884424,,,
0.5468750000,2,-19.3698384056,,,
0.5625000000,2,2.0875367101,,,
0.5781250000,2,28.5205209685,,,
0.5937500000,2,24.1638204238,33024,0.5996093750,0.0000000000
0.6093750000,2,10.3920369603,,,
0.6250000000,2,10.3834765529,,,
0.6406250000,2,11.6955386619,,,
0.6562500000,2,6.7600564766,,,
0.6718750000,2,0.5992672691,,,
0.6875000000,2,1.4055570090,,,
0.7031250000,2,-0.3011077714,,,
0.7187500000,2,-3.6867036571,,,
0.7343750000,2,-1.2975777364,,,
0.7500000000,3,-1.6718146650,,,
0.7656250000,3,-1.3061576804,,,
0.7812500000,3,-0.7630733146,,,
0.7968750000,3,0.0694858565,,,
0.8125000000,3,3.0875654202,,,
0.8281250000,3,-0.0623430396,,,
0.8437500000,3,-1.0192192183,,,
0.8593750000,3,-1.8849462267,,,
0.8750000000,3,-7.4778759055,,,
0.8906250000,3,-6.3199375437,33024,0.8994140625,0.0000000000
0.9062500000,3,-4.0977449031,,,
0.9218750000,3,-3.1658846491,,,
0.9375000000,3,-4.9985050407,,,
0.9531250000,3,-10.5816482821,,,
0.9687500000,3,-9.4760411664,,,
0.9843750000,3,-6.9773624031,,,
1.0000000000,4,-4.2488328826,,,
1.0156250000,4,-2.3149782174,,,
1.0312500000,4,-3.4786410049,,,
1.0468750000,4,1.6921398954,,,
1.0625000000,4,3.3487371522,,,
1.0781250000,4,0.0565395039,,,
1.0937500000,4,0.3811081808,,,
1.1093750000,4,-1.3413765091,,,
1.1250000000,4,-1.6961401742,,,
1.1406250000,4,0.1323491325,,,
1.1562500000,4,1.6667191378,,,
1.1718750000,4,-0.4233766905,,,
1.1875000000,4,-0.6705484578,33024,1.1992187500,0.0000000000
1.2031250000,4,13.3611630258,,,
1.2187500000,4,15.3298466730,,,
1.2343750000,4,-2.5348131591,,,
1.2500000000,5,-9.9919825206,,,
1.2656250000,5,-7.0465203250,,,
1.2812500000,5,-2.2910288611,,,
1.2968750000,5,-2.7857137719,,,
1.3125000000,5,-5.8685720288,,,
1.3281250000,5,0.8276956859,,,
1.3437500000,5,3.5318407191,,,
1.3593750000,5,-1.2873244278,,,
1.3750000000,5,-2.7797251767,,,
1.3906250000,5,1.4184071470,,,
1.4062500000,5,0.3612768388,,,
1.4218750000,5,-17.2206494331,,,
1.4375000000,5,-17.4620761278,,,
1.4531250000,5,9.3917158428,,,
1.4687500000,5,21.1334167229,,,
1.4843750000,5,12.0612343612,33024,1.4990234375,0.0000000000
1.5000000000,6,4.7319911672,,,
1.5156250000,6,9.8527041134,,,
1.5312500000,6,14.1825966306,,,
1.5468750000,6,8.1297978647,,,
1.5625000000,6,5.5449326587,,,
1.5781250000,6,6.3657919057,,,
1.5937500000,6,6.4185226480,,,
1.6093750000,6,3.4112243956,,,
1.6250000000,6,-2.6335566112,,,
1.6406250000,6,-1.6148357845,,,
1.6562500000,6,0.5816738045,,,
1.6718750000,6,1.6816758267,,,
1.6875000000,6,1.4364114768,,,
1.7031250000,6,-4.8446679316,,,
1.7187500000,6,-5.5343984181,,,
1.7343750000,6,-3.9216832158,,,
1.7500000000,7,-4.5311029505,,,
1.7656250000,7,-3.7489209322,,,
1.7812500000,7,-7.4283371557,,,
1.7968750000,7,-7.0242574969,33024,1.7998046875,0.0000000000
1.8125000000,7,-3.6292628213,,,
1.8281250000,7,-2.6480450288,,,
1.8437500000,7,0.5968078486,,,
1.8593750000,7,-0.1577947190,,,
1.8750000000,7,0.1766414549,,,
1.8906250000,7,1.1576938698,,,
1.9062500000,7,-1.2934013489,,,
1.9218750000,7,0.8223771125,,,
1.9375000000,7,0.1886666676,,,
1.9531250000,7,-1.8984294976,,,
1.9687500000,7,-1.1510195685,,,
1.9843750000,7,-0.4340703671,,,
2.0000000000,8,1.7797565179,,,
2.0156250000,8,-0.8486996416,,,
2.0312500000,8,-1.2233940386,,,
2.0468750000,8,1.7578466452,,,
2.0625000000,8,-0.5305205072,,,
2.0781250000,8,0.5446509178,,,
2.0937500000,8,0.0480496277,33024,2.0996093750,0.0000000000
2.1093750000,8,-3.3789588071,,,
2.1250000000,8,-3.5868515063,,,
2.1406250000,8,-3.8660459350,,,
2.1562500000,8,-1.7459439912,,,
2.1718750000,8,-3.7588043111,,,
2.1875000000,8,-5.7654829331,,,
2.2031250000,8,-1.0164111620,,,
2.2187500000,8,0.1625352573,,,
2.2343750000,8,1.4606599529,,,
2.2500000000,9,1.1369134535,,,
2.2656250000,9,-1.1765892478,,,
2.2812500000,9,1.1890802992,,,
2.2968750000,9,2.4883368467,,,
2.3125000000,9,5.6963806520,,,
2.3281250000,9,7.4342209426,,,
2.3437500000,9,5.3568483809,,,
2.3593750000,9,5.7992160526,,,
2.3750000000,9,2.9924095638,,,
2.3906250000,9,1.1247157878,33024,2.3994140625,0.0000000000
2.4062500000,9,0.3068627598,,,
2.4218750000,9,-2.2754519523,,,
2.4375000000,9,-0.4566259215,,,
2.4531250000,9,-0.3636713730,,,
2.4687500000,9,0.3050538912,,,
2.4843750000,9,1.1745124130,,,
2.5000000000,10,-1.3425179414,,,
2.5156250000,10,0.7356629668,,,
2.5312500000,10,-0.4016034194,,,
2.5468750000,10,-3.0989332657,,,
2.5625000000,10,-1.4237300564,,,
2.5781250000,10,-1.4533712041,,,
2.5937500000,10,-0.6839902864,,,
2.6093750000,10,-2.6338800561,,,
2.6250000000,10,-1.5842249264,,,
2.6406250000,10,3.4473440358,,,
2.6562500000,10,-0.1955700734,,,
2.6718750000,10,-2.0148981398,,,
2.6875000000,10,-0.1739250355,33024,2.6992187500,0.0000000000
2.7031250000,10,-0.0234263324,,,
2.7187500000,10,1.4726877010,,,
2.7343750000,10,1.9008507521,,,
2.7500000000,11,4.6067511378,,,
2.7656250000,11,4.4504115642,,,
2.7812500000,11,2.4592096764,,,
2.7968750000,11,3.1884824047,,,
2.8125000000,11,-0.2269991265,,,
2.8281250000,11,0.9458937443,,,
2.8437500000,11,4.3351534716,,,
2.8593750000,11,8.0682505182,,,
2.8750000000,11,17.6142499296,,,
2.8906250000,11,10.7522685972,,,
2.9062500000,11,-11.7181981256,,,
2.9218750000,11,-21.5345655168,,,
2.9375000000,11,-12.7993817787,,,
2.9531250000,11,-5.1402820480,,,
2.9687500000,11,-11.4232030386,,,
2.9843750000,11,-13.0295525045,33024,2.9990234375,0.0000000000
3.0000000000,12,-6.5157903620,,,
3.0156250000,12,-8.6529089954,,,
3.0312500000,12,-17.5471561120,,,
3.0468750000,12,-18.7678705889,,,
3.0625000000,12,1.7326894409,,,
3.0781250000,12,17.7321408431,,,
3.0937500000,12,6.9130370592,,,
3.1093750000,12,3.1913341560,,,
3.1250000000,12,10.9065963462,,,
3.1406250000,12,9.6668646766,,,
3.1562500000,12,4.4398808987,,,
3.1718750000,12,4.1213181294,,,
3.1875000000,12,11.2851234120,,,
3.2031250000,12,10.7051788532,,,
3.2187500000,12,7.9082444527,,,
3.2343750000,12,20.0159676887,,,
3.2500000000,13,24.9928484623,,,
3.2656250000,13,7.0379198434,,,
3.2812500000,13,-14.4877971016,,,
3.2968750000,13,-14.7922548950,33024,3.2998046875,0.0000000000
3.3125000000,13,-6.3830665752,,,
3.3281250000,13,-10.6452845547,,,
3.3437500000,13,-10.7355364750,,,
3.3593750000,13,-6.7395766162,,,
3.3750000000,13,-8.4677939610,,,
3.3906250000,13,-7.0497625747,,,
3.4062500000,13,-5.0711092672,,,
3.4218750000,13,-1.9271069662,,,
3.4375000000,13,-0.1362419373,,,
3.4531250000,13,-1.1431790979,,,
3.4687500000,13,2.2912854437,,,
3.4843750000,13,3.6611191154,,,
3.5000000000,14,3.3126720534,,,
3.5156250000,14,0.8191673517,,,
3.5312500000,14,-3.5634844868,,,
3.5468750000,14,-1.8785125211,,,
3.5625000000,14,-2.8946162610,,,
3.5781250000,14,-2.6311870617,,,
3.5937500000,14,2.7524145099,33024,3.5996093750,0.0000000000
3.6093750000,14,2.7634218401,,,
3.6250000000,14,2.8248922348,,,
3.6406250000,14,2.7771337354,,,
3.6562500000,14,2.3722490241,,,
3.6718750000,14,4.0417308288,,,
3.6875000000,14,3.7968918550,,,
3.7031250000,14,4.5945455910,,,
3.7187500000,14,1.7910119253,,,
3.7343750000,14,-3.8625721361,,,
3.7500000000,15,-9.4594734774,,,
3.7656250000,15,-11.6560727070,,,
3.7812500000,15,1.6572223006,,,
3.7968750000,15,9.2366127514,,,
3.8125000000,15,2.8263017508,,,
3.8281250000,15,4.8151139598,,,
3.8437500000,15,6.3497218422,,,
3.8593750000,15,2.7528992034,,,
3.8750000000,15,1.7016368856,,,
3.8906250000,15,3.9683641422,33024,3.8994140625,0.0000000000
3.9062500000,15,8.1147049968,,,
3.9218750000,15,5.4122527364,,,
3.9375000000,15,3.4829374403,,,
3.9531250000,15,2.2762843958,,,
3.9687500000,15,-5.3520073581,,,
3.9843750000,15,-7.2410240556,,,
4.0000000000,16,-5.0923210546,,,
4.0156250000,16,-4.1916470181,,,
4.0312500000,16,-5.1698002700,,,
4.0468750000,16,-6.5709956517,,,
4.0625000000,16,-3.0392290742,,,
4.0781250000,16,-3.4951647729,,,
4.0937500000,16,-4.1973865489,,,
4.1093750000,16,-1.3469462648,,,
4.1250000000,16,-1.1172439432,,,
4.1406250000,16,2.0569016979,,,
4.1562500000,16,0.8842776491,,,
4.1718750000,16,-1.9052226956,,,
4.1875000000,16,1.4144499088,33024,4.1992187500,0.0000000000
4.2031250000,16,-0.7557435110,,,
4.2187500000,16,-5.8059942137,,,
4.2343750000,16,-8.0434817404,,,
4.2500000000,17,-4.3122970246,,,
4.2656250000,17,0.6882121950,,,
4.2812500000,17,-1.7811308960,,,
4.2968750000,17,-1.0068936302,,,
4.3125000000,17,0.5025004578,,,
4.3281250000,17,1.1544434229,,,
4.3437500000,17,5.6413778258,,,
4.3593750000,17,4.3821060845,,,
4.3750000000,17,4.9335191308,,,
4.3906250000,17,7.3839274073,,,
4.4062500000,17,4.4199493446,,,
4.4218750000,17,3.1625718218,,,
4.4375000000,17,0.9691291042,,,
4.4531250000,17,-0.1208901464,,,
4.4687500000,17,1.1177838579,,,
4.4843750000,17,2.6803507316,33024,4.4990234375,0.0000000000
4.5000000000,18,5.4992675418,,,
4.5156250000,18,1.2326041627,,,
4.5312500000,18,-2.3174016808,,,
4.5468750000,18,-0.6027289425,,,
4.5625000000,18,0.2128414003,,,
4.5781250000,18,2.3558861337,,,
4.5937500000,18,-0.6951182746,,,
4.6093750000,18,-2.6248667073,,,
4.6250000000,18,-1.0648380497,,,
4.6406250000,18,-4.6222143748,,,
4.6562500000,18,-2.9455774394,,,
4.6718750000,18,-1.3024304001,,,
4.6875000000,18,-3.6388104434,,,
4.7031250000,18,-2.1390592108,,,
4.7187500000,18,-1.5601280950,,,
4.7343750000,18,-0.5865880185,,,
4.7500000000,19,-0.2366646827,,,
4.7656250000,19,1.9807232628,,,
4.7812500000,19,5.4600190060,,,
4.7968750000,19,2.0472294960,33024,4.7998046875,0.0000000000
4.8125000000,19,1.2900700107,,,
4.8281250000,19,1.9691759431,,,
4.8437500000,19,2.4568869523,,,
4.8593750000,19,5.2352835713,,,
4.8750000000,19,1.6871083014,,,
4.8906250000,19,0.7242963539,,,
4.9062500000,19,2.6516621081,,,
4.9218750000,19,1.8470305619,,,
4.9375000000,19,7.2596792497,,,
4.9531250000,19,16.6033034299,,,
4.9687500000,19,19.0047146361,,,
4.9843750000,19,1.8322985731,,,
5.0000000000,20,-18.9924643042,,,
5.0156250000,20,-19.3626049640,,,
5.0312500000,20,-15.3833874149,,,
5.0468750000,20,-14.5458445492,,,
5.0625000000,20,-11.6489771122,,,
5.0781250000,20,-9.0533400582,,,
5.0937500000,20,-4.9425203678,33024,5.0996093750,0.0000000000
5.1093750000,20,-4.0401127572,,,
5.1250000000,20,-1.7192252777,,,
5.1406250000,20,0.0560676230,,,
5.1562500000,20,-4.2269831469,,,
5.1718750000,20,-1.7036714832,,,
5.1875000000,20,0.1863044501,,,
5.2031250000,20,-1.8919199070,,,
5.2187500000,20,0.2049274815,,,
5.2343750000,20,0.9533053703,,,
5.2500000000,21,4.2206681424,,,
5.2656250000,21,5.9616509457,,,
5.2812500000,21,3.8052242413,,,
5.2968750000,21,5.0546554543,,,
5.3125000000,21,6.1327024911,,,
5.3281250000,21,6.4150294798,,,
5.3437500000,21,1.5479005953,,,
5.3593750000,21,-0.9612877610,,,
5.3750000000,21,4.9612999421,,,
5.3906250000,21,4.0736677420,33024,5.3994140625,0.0000000000
5.4062500000,21,2.1658132971,,,
5.4218750000,21,3.0541106960,,,
5.4375000000,21,2.2180279307,,,
5.4531250000,21,4.2507606583,,,
5.4687500000,21,2.8367038336,,,
5.4843750000,21,1.4478798103,,,
5.5000000000,22,1.4864509112,,,
5.5156250000,22,-1.5798173828,,,
5.5312500000,22,-1.3191005728,,,
5.5468750000,22,-0.9986360809,,,
5.5625000000,22,0.4545202826,,,
5.5781250000,22,1.9524649671,,,
5.5937500000,22,-0.0811040848,,,
5.6093750000,22,1.1417234822,,,
5.6250000000,22,1.1929067797,,,
5.6406250000,22,3.8483198571,,,
5.6562500000,22,7.3795460759,,,
5.6718750000,22,1.7596123286,,,
5.6875000000,22,-0.7660797819,33024,5.6992187500,0.0000000000
5.7031250000,22,-0.2502745440,,,
5.7187500000,22,-1.4166309873,,,
5.7343750000,22,-3.7914317367,,,
5.7500000000,23,-7.3099180612,,,
5.7656250000,23,-3.0151058953,,,
5.7812500000,23,-1.6932121635,,,
5.7968750000,23,-6.0748060680,,,
5.8125000000,23,-4.9119688966,,,
5.8281250000,23,-4.5774873101,,,
5.8437500000,23,-3.7988270324,,,
5.8593750000,23,-2.9286046636,,,
5.8750000000,23,-1.2538744590,,,
5.8906250000,23,2.3250954138,,,
5.9062500000,23,-1.4556451755,,,
5.9218750000,23,-2.4190621152,,,
5.9375000000,23,0.3566329667,,,
5.9531250000,23,-1.0047309778,,,
5.9687500000,23,-0.1304440213,,,
5.9843750000,23,-0.3887880658,33024,5.9990234375,0.0000000000
6.0000000000,24,0.2391218533,,,
6.0156250000,24,1.2385543353,,,
6.0312500000,24,0.8054688302,,,
6.0468750000,24,3.5136210479,,,
6.0625000000,24,1.3393202275,,,
6.0781250000,24,0.1461756164,,,
6.0937500000,24,2.5856196889,,,
6.1093750000,24,0.9160709364,,,
6.1250000000,24,-0.6634807229,,,
6.1406250000,24,-3.1528539578,,,
6.1562500000,24,-0.5532311258,,,
6.1718750000,24,1.5288450571,,,
6.1875000000,24,-5.7308750687,,,
6.2031250000,24,-4.5518224574,,,
6.2187500000,24,1.3729529120,,,
6.2343750000,24,2.3928930210,,,
6.2500000000,25,1.4373272943,,,
6.2656250000,25,-2.3916263266,,,
6.2812500000,25,-0.6128642027,,,
6.2968750000,25,2.8929875661,33024,6.2998046875,0.0000000000
6.3125000000,25,4.3584850956,,,
6.3281250000,25,6.0361040260,,,
6.3437500000,25,2.7260797440,,,
6.3593750000,25,2.8643652931,,,
6.3750000000,25,3.3461262500,,,
6.3906250000,25,0.9427936556,,,
6.4062500000,25,3.0519922485,,,
6.4218750000,25,3.7343329838,,,
6.4375000000,25,5.9726274655,,,
6.4531250000,25,6.6325381729,,,
6.4687500000,25,5.6841770881,,,
6.4843750000,25,15.3651089369,,,
6.5000000000,26,20.5096481160,,,
6.5156250000,26,5.6001213448,,,
6.5312500000,26,-18.1571780228,,,
6.5468750000,26,-25.5712179805,,,
6.5625000000,26,-16.3955053259,,,
6.5781250000,26,-14.6057948486,,,
6.5937500000,26,-14.7945790956,33024,6.5996093750,0.0000000000
6.6093750000,26,-12.0626269423,,,
6.6250000000,26,-10.6763871446,,,
6.6406250000,26,-5.1881826030,,,
6.6562500000,26,-5.8130666040,,,
6.6718750000,26,-7.1241117775,,,
6.6875000000,26,-0.4675764474,,,
6.7031250000,26,1.9095880263,,,
6.7187500000,26,1.2198526753,,,
6.7343750000,26,-0.5533061295,,,
6.7500000000,27,-3.2676133814,,,
6.7656250000,27,-6.2467373796,,,
6.7812500000,27,-4.2584368810,,,
6.7968750000,27,10.7159582252,,,
6.8125000000,27,16.6267336842,,,
6.8281250000,27,10.3795676750,,,
6.8437500000,27,11.8173058864,,,
6.8593750000,27,12.9072878693,,,
6.8750000000,27,11.0902529076,,,
6.8906250000,27,9.3912763543,33024,6.8994140625,0.0000000000
6.9062500000,27,8.5452967693,,,
6.9218750000,27,7.5718111472,,,
6.9375000000,27,0.7831752531,,,
6.9531250000,27,0.4304782182,,,
6.9687500000,27,2.1808527012,,,
6.9843750000,27,-1.6729506661,,,
7.0000000000,28,-0.1035356995,,,
7.0156250000,28,-0.0202472422,,,
7.0312500000,28,-0.7501549548,,,
7.0468750000,28,0.6345920857,,,
7.0625000000,28,-1.5432670369,,,
7.0781250000,28,-2.9840407219,,,
7.0937500000,28,-6.5416885884,,,
7.1093750000,28,-7.0528741751,,,
7.1250000000,28,-2.3920353452,,,
7.1406250000,28,-0.1425109804,,,
7.1562500000,28,1.5441965676,,,
7.1718750000,28,-1.2250027713,,,
7.1875000000,28,-1.9593201900,33024,7.1992187500,0.0000000000
7.2031250000,28,0.5035069314,,,
7.2187500000,28,-2.0181737462,,,
7.2343750000,28,-0.4389996029,,,
7.2500000000,29,0.5851807943,,,
7.2656250000,29,-1.1241022102,,,
7.2812500000,29,-0.2035289805,,,
7.2968750000,29,-1.4714074177,,,
7.3125000000,29,-0.4251503829,,,
7.3281250000,29,0.3488041905,,,
7.3437500000,29,1.2868760901,,,
7.3593750000,29,5.8750188935,,,
7.3750000000,29,6.4100878233,,,
7.3906250000,29,3.6829651378,,,
7.4062500000,29,-4.2928636231,,,
7.4218750000,29,-9.8460757180,,,
7.4375000000,29,-6.6737515878,,,
7.4531250000,29,-7.8542078912,,,
7.4687500000,29,-9.2001392452,,,
7.4843750000,29,-8.2746425508,33024,7.4990234375,0.0000000000
7.5000000000,30,-7.1306892588,,,
7.5156250000,30,-2.8977050092,,,
7.5312500000,30,-2.6463615466,,,
7.5468750000,30,-1.8927645927,,,
7.5625000000,30,-0.4873994716,,,
7.5781250000,30,-0.5403305754,,,
7.5937500000,30,-1.9601536042,,,
7.6093750000,30,-11.9496830674,,,
7.6250000000,30,-7.1614223618,,,
7.6406250000,30,12.4575817707,,,
7.6562500000,30,13.0448217885,,,
7.6718750000,30,4.8992421673,,,
7.6875000000,30,4.0636226932,,,
7.7031250000,30,6.1860376715,,,
7.7187500000,30,4.9937968063,,,
7.7343750000,30,1.4496348369,,,
7.7500000000,31,3.6337114108,,,
7.7656250000,31,2.0428714503,,,
7.7812500000,31,-0.2325611162,,,
7.7968750000,31,4.3364199720,33024,7.7998046875,0.0000000000
7.8125000000,31,4.8038512937,,,
7.8281250000,31,4.7859268350,,,
7.8437500000,31,3.9873132193,,,
7.8593750000,31,1.9391981411,,,
7.8750000000,31,4.0501558606,,,
7.8906250000,31,4.0039827025,,,
7.9062500000,31,2.4859417359,,,
7.9218750000,31,-1.1723010668,,,
7.9375000000,31,-2.8235149500,,,
7.9531250000,31,0.4636285761,,,
7.9687500000,31,-1.0079260925,,,
7.9843750000,31,0.1150009807,,,
8.0000000000,32,0.6266738631,,,
8.0156250000,32,-4.1109971137,,,
8.0312500000,32,-1.1827527829,,,
8.0468750000,32,1.3878204074,,,
8.0625000000,32,-0.6915567896,,,
8.0781250000,32,-2.1867098951,,,
8.0937500000,32,-1.4919885701,33024,8.0996093750,0.0000000000
8.1093750000,32,1.6462852529,,,
8.1250000000,32,-0.9969965802,,,
8.1406250000,32,-2.6559172381,,,
8.1562500000,32,-2.5899778418,,,
8.1718750000,32,-5.8702482805,,,
8.1875000000,32,-3.3758888117,,,
8.2031250000,32,-1.8034396399,,,
8.2187500000,32,-1.8975049207,,,
8.2343750000,32,-1.6408862811,,,
8.2500000000,33,-3.9944237479,,,
8.2656250000,33,0.5320279126,,,
8.2812500000,33,2.0679972604,,,
8.2968750000,33,-1.0708531262,,,
8.3125000000,33,3.2266182145,,,
8.3281250000,33,5.7696194379,,,
8.3437500000,33,3.3114159463,,,
8.3593750000,33,-0.5297507784,,,
8.3750000000,33,0.2295735040,,,
8.3906250000,33,2.0523835421,33024,8.3994140625,0.0000000000
8.4062500000,33,-4.3356967240,,,
8.4218750000,33,-4.5590983782,,,
8.4375000000,33,-0.3944341074,,,
8.4531250000,33,-1.4826339372,,,
8.4687500000,33,-2.0896094207,,,
8.4843750000,33,-2.5534880273,,,
8.5000000000,34,1.9819865242,,,
8.5156250000,34,3.7554759600,,,
8.5312500000,34,-2.0201145394,,,
8.5468750000,34,-2.9155773341,,,
8.5625000000,34,-2.8560958648,,,
8.5781250000,34,-1.2524077515,,,
8.5937500000,34,0.8996135314,,,
8.6093750000,34,0.0325527029,,,
8.6250000000,34,2.0865028790,,,
8.6406250000,34,0.1549234945,,,
8.6562500000,34,-2.1660789615,,,
8.6718750000,34,-0.7324586304,,,
8.6875000000,34,0.4719113938,33024,8.6992187500,0.0000000000
8.7031250000,34,5.3059521989,,,
8.7187500000,34,5.6023465558,,,
8.7343750000,34,3.7266486561,,,
8.7500000000,35,3.5563823159,,,
8.7656250000,35,1.2996412064,,,
8.7812500000,35,4.1973160694,,,
8.7968750000,35,3.4984516549,,,
8.8125000000,35,-1.4121212400,,,
8.8281250000,35,-1.4846407529,,,
8.8437500000,35,-2.6606834649,,,
8.8593750000,35,-2.7165225497,,,
8.8750000000,35,-3.0734144097,,,
8.8906250000,35,-2.0825540020,,,
8.9062500000,35,1.2086613631,,,
8.9218750000,35,-1.8920660040,,,
8.9375000000,35,-2.7478175845,,,
8.9531250000,35,-0.6591900133,,,
8.9687500000,35,0.9081722715,,,
8.9843750000,35,1.9637248851,33024,8.9990234375,0.0000000000
9.0000000000,36,-3.2194033577,,,
9.0156250000,36,-2.1498279899,,,
9.0312500000,36,1.8350373036,,,
9.0468750000,36,-1.4607039834,,,
9.0625000000,36,-1.1279284008,,,
9.0781250000,36,0.1003280955,,,
9.0937500000,36,0.6808359059,,,
9.1093750000,36,0.5244609935,,,
9.1250000000,36,-0.0826155609,,,
9.1406250000,36,4.6434772603,,,
9.1562500000,36,6.2072211199,,,
9.1718750000,36,9.0796553423,,,
9.1875000000,36,9.8706320708,,,
9.2031250000,36,-2.6572962923,,,
9.2187500000,36,-10.1059941340,,,
9.2343750000,36,-6.8892685315,,,
9.2500000000,37,-2.1006758700,,,
9.2656250000,37,-2.4386040040,,,
9.2812500000,37,-5.7342928783,,,
9.2968750000,37,-1.3999602280,33024,9.2998046875,0.0000000000
9.3125000000,37,-0.7359763735,,,
9.3281250000,37,-4.1215958882,,,
9.3437500000,37,-2.2621906311,,,
9.3593750000,37,-2.7977016747,,,
9.3750000000,37,-3.0606074074,,,
9.3906250000,37,-2.4714942914,,,
9.4062500000,37,-0.4456537783,,,
9.4218750000,37,3.3882713535,,,
9.4375000000,37,1.6024344708,,,
9.4531250000,37,1.7459848259,,,
9.4687500000,37,2.9491029058,,,
9.4843750000,37,3.1530244619,,,
9.5000000000,38,5.0735991832,,,
9.5156250000,38,2.0895951401,,,
9.5312500000,38,3.0709854533,,,
9.5468750000,38,5.3835178068,,,
9.5625000000,38,2.7812522053,,,
9.5781250000,38,3.6723775191,,,
9.5937500000,38,3.2478805832,33024,9.5996093750,0.0000000000
9.6093750000,38,4.5982478923,,,
9.6250000000,38,6.3201345752,,,
9.6406250000,38,4.4743920636,,,
9.6562500000,38,8.0617032334,,,
9.6718750000,38,5.9691779450,,,
9.6875000000,38,-5.6004082189,,,
9.7031250000,38,-12.9676939489,,,
9.7187500000,38,-10.2898317025,,,
9.7343750000,38,-4.9152870168,,,
9.7500000000,39,-9.1863245593,,,
9.7656250000,39,-9.7598359677,,,
9.7812500000,39,-4.2588886456,,,
9.7968750000,39,-5.9709559177,,,
9.8125000000,39,-5.1758771995,,,
9.8281250000,39,-8.7698102693,,,
9.8437500000,39,-14.7812008386,,,
9.8593750000,39,-3.4918241165,,,
9.8750000000,39,9.2272227017,,,
9.8906250000,39,8.5283723194,33024,9.8994140625,0.0000000000
9.9062500000,39,3.5244039125,,,
9.9218750000,39,7.4723507684,,,
9.9375000000,39,13.5592631483,,,
9.9531250000,39,7.6208015665,,,
9.9687500000,39,3.3415027986,,,
9.9843750000,39,3.9658379874,,,
10.0000000000,40,2.7269927042,,,
10.0156250000,40,0.8439188974,,,
10.0312500000,40,-2.9286489526,,,
10.0468750000,40,0.3195902509,,,
10.0625000000,40,4.4327481374,,,
10.0781250000,40,2.3450271535,,,
10.0937500000,40,2.0204442460,,,
10.1093750000,40,-0.1003053306,,,
10.1250000000,40,0.6259523275,,,
10.1406250000,40,2.5580918207,,,
10.1562500000,40,1.3796238039,,,
10.1718750000,40,8.8201644599,,,
10.1875000000,40,14.1314387718,33024,10.1992187500,0.0000000000
10.2031250000,40,4.5339411405,,,
10.2187500000,40,-9.9786418255,,,
10.2343750000,40,-14.2761260008,,,
10.2500000000,41,-9.9183230528,,,
10.2656250000,41,-11.3938902052,,,
10.2812500000,41,-10.4427901630,,,
10.2968750000,41,-6.7883112183,,,
10.3125000000,41,-7.0718025541,,,
10.3281250000,41,0.0886317847,,,
10.3437500000,41,2.7186061570,,,
10.3593750000,41,-2.8308493853,,,
10.3750000000,41,-2.7046364565,,,
10.3906250000,41,-0.4812508342,,,
10.4062500000,41,2.3342310166,,,
10.4218750000,41,1.0110441328,,,
10.4375000000,41,-0.7764029730,,,
10.4531250000,41,1.7102018120,,,
10.4687500000,41,-2.1222979495,,,
10.4843750000,41,-3.4496451086,33024,10.4990234375,0.0000000000
10.5000000000,42,0.9252410250,,,
10.5156250000,42,2.3861035096,,,
10.5312500000,42,2.8336003880,,,
10.5468750000,42,0.7974798771,,,
10.5625000000,42,1.5649394903,,,
10.5781250000,42,3.6708346055,,,
10.5937500000,42,2.7992619563,,,
10.6093750000,42,2.8010764402,,,
10.6250000000,42,2.1732280483,,,
10.6406250000,42,4.5232307183,,,
10.6562500000,42,-5.8720927714,,,
10.6718750000,42,-22.6346693663,,,
10.6875000000,42,-4.0995532846,,,
10.7031250000,42,21.1028988323,,,
10.7187500000,42,13.8056802703,,,
10.7343750000,42,2.3504673856,,,
10.7500000000,43,7.0801405399,,,
10.7656250000,43,10.9361954558,,,
10.7812500000,43,3.4372052945,,,
10.7968750000,43,2.4192029933,33024,10.7998046875,0.0000000000
10.8125000000,43,5.9802489766,,,
10.8281250000,43,0.4418686141,,,
10.8437500000,43,-0.8241135216,,,
10.8593750000,43,0.1344457631,,,
10.8750000000,43,-1.3537835323,,,
10.8906250000,43,-0.3611014485,,,
10.9062500000,43,-1.3309865008,,,
10.9218750000,43,0.0922418731,,,
10.9375000000,43,0.1914176529,,,
10.9531250000,43,-2.9476853681,,,
10.9687500000,43,-3.6986811237,,,
10.9843750000,43,-4.8940340241,,,
11.0000000000,44,-2.9707627469,,,
11.0156250000,44,-5.2382811894,,,
11.0312500000,44,-10.2669869752,,,
11.0468750000,44,-5.0812705511,,,
11.0625000000,44,-1.2354047486,,,
11.0781250000,44,-2.0507317343,,,
11.0937500000,44,-3.8790481319,33024,11.0996093750,0.0000000000
11.1093750000,44,-3.6226250216,,,
11.1250000000,44,2.0526343311,,,
11.1406250000,44,0.5577497745,,,
11.1562500000,44,-1.4282184708,,,
11.1718750000,44,2.2125751640,,,
11.1875000000,44,0.8386848830,,,
11.2031250000,44,-2.5730181494,,,
11.2187500000,44,-3.7601588786,,,
11.2343750000,44,2.4383813172,,,
11.2500000000,45,5.9885029118,,,
11.2656250000,45,-1.2507195433,,,
11.2812500000,45,-1.5473378451,,,
11.2968750000,45,2.0210850978,,,
11.3125000000,45,2.2044182807,,,
11.3281250000,45,2.1229519515,,,
11.3437500000,45,-0.3115705515,,,
11.3593750000,45,0.0110801552,,,
11.3750000000,45,-1.1549451792,,,
11.3906250000,45,-3.4531951610,33024,11.3994140625,0.0000000000
11.4062500000,45,-3.6610316553,,,
11.4218750000,45,-5.1348106121,,,
11.4375000000,45,-0.1741973108,,,
11.4531250000,45,3.7800248986,,,
11.4687500000,45,5.3392588568,,,
11.4843750000,45,11.5528167321,,,
11.5000000000,46,7.9810266527,,,
11.5156250000,46,-1.5878607198,,,
11.5312500000,46,-6.5901356525,,,
11.5468750000,46,-13.7322285936,,,
11.5625000000,46,-21.0527460893,,,
11.5781250000,46,-12.3407933832,,,
11.5937500000,46,11.7493532956,,,
11.6093750000,46,16.7701562092,,,
11.6250000000,46,6.9126257956,,,
11.6406250000,46,11.3135922747,,,
11.6562500000,46,10.5155462743,,,
11.6718750000,46,2.6158046157,,,
11.6875000000,46,2.5555425431,33024,11.6992187500,0.0000000000
11.7031250000,46,1.2932534030,,,
11.7187500000,46,-1.3322165379,,,
11.7343750000,46,0.3174414648,,,
11.7500000000,47,12.9070531895,,,
11.7656250000,47,18.6477087026,,,
11.7812500000,47,1.4696785635,,,
11.7968750000,47,-10.9408669442,,,
11.8125000000,47,-7.9704594105,,,
11.8281250000,47,-2.5516958770,,,
11.8437500000,47,-3.2009785292,,,
11.8593750000,47,-8.9246096643,,,
11.8750000000,47,-8.5353505513,,,
11.8906250000,47,-5.9561955040,,,
11.9062500000,47,-5.1033955835,,,
11.9218750000,47,-5.5270697251,,,
11.9375000000,47,-7.3852653533,,,
11.9531250000,47,-4.3930014179,,,
11.9687500000,47,-4.4593742816,,,
11.9843750000,47,-4.6741647552,33024,11.9990234375,0.0000000000
12.0000000000,48,2.5618974923,,,
12.0156250000,48,0.5660147826,,,
12.0312500000,48,-9.8983642816,,,
12.0468750000,48,-13.8365545113,,,
12.0625000000,48,-2.2717613251,,,
12.0781250000,48,14.1515637785,,,
12.0937500000,48,10.8700965962,,,
12.1093750000,48,3.7669512920,,,
12.1250000000,48,8.1107900795,,,
12.1406250000,48,11.7080864031,,,
12.1562500000,48,12.5473412818,,,
12.1718750000,48,7.9255185553,,,
12.1875000000,48,5.0218312363,,,
12.2031250000,48,5.4662708058,,,
12.2187500000,48,1.6664078108,,,
12.2343750000,48,0.4391327506,,,
12.2500000000,49,0.3207965623,,,
12.2656250000,49,1.7997045950,,,
12.2812500000,49,2.5308351335,,,
12.2968750000,49,-2.4605914256,33024,12.2998046875,0.0000000000
12.3125000000,49,-4.0532096744,,,
12.3281250000,49,-5.5416306155,,,
12.3437500000,49,-5.0565215163,,,
12.3593750000,49,0.4223299011,,,
12.3750000000,49,0.3502481355,,,
12.3906250000,49,-3.1717917395,,,
12.4062500000,49,-7.2518759790,,,
12.4218750000,49,-5.4689125952,,,
12.4375000000,49,-0.3163457388,,,
12.4531250000,49,-3.2031715460,,,
12.4687500000,49,-3.5831474409,,,
12.4843750000,49,-1.8609942711,,,
12.5000000000,50,-1.8546502879,,,
12.5156250000,50,-0.6320271364,,,
12.5312500000,50,-3.7600305825,,,
12.5468750000,50,-2.1686136255,,,
12.5625000000,50,-2.0952396448,,,
12.5781250000,50,-15.4628736777,,,
12.5937500000,50,-19.1155450179,33024,12.5996093750,0.0000000000
12.6093750000,50,0.0208088283,,,
12.6250000000,50,20.1649249097,,,
12.6406250000,50,15.8596755092,,,
12.6562500000,50,5.3254046124,,,
12.6718750000,50,11.3568468652,,,
12.6875000000,50,10.2350892162,,,
12.7031250000,50,2.9611042455,,,
12.7187500000,50,4.3867068636,,,
12.7343750000,50,4.5034652721,,,
12.7500000000,51,3.7301883856,,,
12.7656250000,51,0.6881811065,,,
12.7812500000,51,-1.5674077463,,,
12.7968750000,51,-0.9423215012,,,
12.8125000000,51,-2.6631797223,,,
12.8281250000,51,-2.0575462856,,,
12.8437500000,51,-3.9395482368,,,
12.8593750000,51,-4.6727647757,,,
12.8750000000,51,-2.0564910624,,,
12.8906250000,51,-5.8182170877,33024,12.8994140625,0.0000000000
12.9062500000,51,-7.3849428020,,,
12.9218750000,51,-6.5965971233,,,
12.9375000000,51,-5.1699874857,,,
12.9531250000,51,-2.6421269705,,,
12.9687500000,51,-4.6858049734,,,
12.9843750000,51,0.0632367031,,,
13.0000000000,52,6.2516372511,,,
13.0156250000,52,3.9304777227,,,
13.0312500000,52,2.8778174662,,,
13.0468750000,52,3.5599044414,,,
13.0625000000,52,4.3969180102,,,
13.0781250000,52,1.0499469524,,,
13.0937500000,52,-1.9180220685,,,
13.1093750000,52,2.3031199537,,,
13.1250000000,52,1.7691175796,,,
13.1406250000,52,-0.9658695142,,,
13.1562500000,52,-1.3131687856,,,
13.1718750000,52,0.2274267811,,,
13.1875000000,52,4.0695153630,33024,13.1992187500,0.0000000000
13.2031250000,52,0.6241021436,,,
13.2187500000,52,-0.7007000761,,,
13.2343750000,52,2.2977839155,,,
13.2500000000,53,-0.2611628983,,,
13.2656250000,53,-0.5995907730,,,
13.2812500000,53,-1.5077923934,,,
13.2968750000,53,-2.4597747286,,,
13.3125000000,53,-1.9472116044,,,
13.3281250000,53,-4.5572558037,,,
13.3437500000,53,-3.4935477505,,,
13.3593750000,53,-4.3702040056,,,
13.3750000000,53,-5.5707444777,,,
13.3906250000,53,0.3139045525,,,
13.4062500000,53,5.1493914577,,,
13.4218750000,53,6.2056956236,,,
13.4375000000,53,1.4372602386,,,
13.4531250000,53,0.1924580496,,,
13.4687500000,53,5.2517017572,,,
13.4843750000,53,3.2126247921,33024,13.4990234375,0.0000000000
13.5000000000,54,2.3261102680,,,
13.5156250000,54,4.1339263118,,,
13.5312500000,54,3.9541696758,,,
13.5468750000,54,4.8574522163,,,
13.5625000000,54,0.9874248921,,,
13.5781250000,54,-1.9120313302,,,
13.5937500000,54,-1.9530083209,,,
13.6093750000,54,-1.7005788188,,,
13.6250000000,54,0.1578899124,,,
13.6406250000,54,-1.7565394240,,,
13.6562500000,54,0.4877552012,,,
13.6718750000,54,1.7385537852,,,
13.6875000000,54,-4.8594134091,,,
13.7031250000,54,-5.6057075494,,,
13.7187500000,54,-4.4241608121,,,
13.7343750000,54,-2.0783090637,,,
13.7500000000,55,1.5192271621,,,
13.7656250000,55,-0.0580013356,,,
13.7812500000,55,1.0166008013,,,
13.7968750000,55,1.9429698888,33024,13.7998046875,0.0000000000
13.8125000000,55,0.8666362035,,,
13.8281250000,55,-1.0051502128,,,
13.8437500000,55,-3.8190458557,,,
13.8593750000,55,-0.1362992565,,,
13.8750000000,55,2.0644968304,,,
13.8906250000,55,1.5598025301,,,
13.9062500000,55,2.1525516416,,,
13.9218750000,55,1.4735311730,,,
13.9375000000,55,4.6861426062,,,
13.9531250000,55,2.1179698445,,,
13.9687500000,55,-3.1981848177,,,
13.9843750000,55,-1.5116284106,,,
14.0000000000,56,-4.0810441697,,,
14.0156250000,56,-5.7664056417,,,
14.0312500000,56,-3.5928046455,,,
14.0468750000,56,-1.8501816714,,,
14.0625000000,56,0.3473779943,,,
14.0781250000,56,-2.3455503365,,,
14.0937500000,56,-3.1559007207,33024,14.0996093750,0.0000000000
14.1093750000,56,-2.8907726353,,,
14.1250000000,56,-2.8658893824,,,
14.1406250000,56,3.0032263758,,,
14.1562500000,56,3.6732862871,,,
14.1718750000,56,3.0798951266,,,
14.1875000000,56,4.6706719989,,,
14.2031250000,56,1.7748501642,,,
14.2187500000,56,0.3715074448,,,
14.2343750000,56,-0.8298294382,,,
14.2500000000,57,1.2466255339,,,
14.2656250000,57,3.9840448077,,,
14.2812500000,57,1.0593384285,,,
14.2968750000,57,1.4787791062,,,
14.3125000000,57,1.8930472039,,,
14.3281250000,57,-4.5955034007,,,
14.3437500000,57,-12.1255013556,,,
14.3593750000,57,2.4332041230,,,
14.3750000000,57,32.8707662770,,,
14.3906250000,57,22.8524617619,33024,14.3994140625,0.0000000000
14.4062500000,57,-12.0994378124,,,
14.4218750000,57,-15.1036144531,,,
14.4375000000,57,-4.3504246836,,,
14.4531250000,57,-5.7117304649,,,
14.4687500000,57,-10.7827546276,,,
14.4843750000,57,-7.3476321283,,,
14.5000000000,58,-1.2867524323,,,
14.5156250000,58,-5.6916881938,,,
14.5312500000,58,-6.8140713787,,,
14.5468750000,58,1.0910146608,,,
14.5625000000,58,2.0551841240,,,
14.5781250000,58,4.5305475527,,,
14.5937500000,58,32.4377169561,,,
14.6093750000,58,45.9092897206,,,
14.6250000000,58,1.9267356587,,,
14.6406250000,58,-31.0560621453,,,
14.6562500000,58,-16.4836648055,,,
14.6718750000,58,-8.3085453689,,,
14.6875000000,58,-10.9974648620,33024,14.6992187500,0.0000000000
14.7031250000,58,-8.0566197789,,,
14.7187500000,58,-6.3433059506,,,
14.7343750000,58,-6.0382791241,,,
14.7500000000,59,-7.6697512106,,,
14.7656250000,59,-5.3408455833,,,
14.7812500000,59,-1.4867825192,,,
14.7968750000,59,-3.8002953237,,,
14.8125000000,59,-4.1855839641,,,
14.8281250000,59,-2.0263712354,,,
14.8437500000,59,1.9314256198,,,
14.8593750000,59,5.4332054967,,,
14.8750000000,59,3.0212975865,,,
14.8906250000,59,2.9990889385,,,
14.9062500000,59,6.5915705535,,,
14.9218750000,59,10.5925953028,,,
14.9375000000,59,10.9550911546,,,
14.9531250000,59,5.7792338754,,,
14.9687500000,59,6.6701330735,,,
14.9843750000,59,7.9041286987,33024,14.9990234375,0.0000000000
15.0000000000,60,4.0043601429,,,
15.0156250000,60,2.3923401994,,,
15.0312500000,60,0.1499213021,,,
15.0468750000,60,-0.3764463718,,,
15.0625000000,60,-1.2414833180,,,
15.0781250000,60,-3.7622868457,,,
15.0937500000,60,-2.3383552130,,,
15.1093750000,60,-1.1875528267,,,
15.1250000000,60,1.6020969639,,,
15.1406250000,60,3.3530483376,,,
15.1562500000,60,0.6073002787,,,
15.1718750000,60,0.1450988460,,,
15.1875000000,60,1.7281260610,,,
15.2031250000,60,5.3229431328,,,
15.2187500000,60,3.6360945113,,,
15.2343750000,60,-3.8512220484,,,
15.2500000000,61,-4.8007062868,,,
15.2656250000,61,-4.9993489444,,,
15.2812500000,61,-5.1046276804,,,
15.2968750000,61,-2.7183505724,33024,15.2998046875,0.0000000000
15.3125000000,61,-4.2913545535,,,
15.3281250000,61,-3.7668586732,,,
15.3437500000,61,-0.9477112616,,,
15.3593750000,61,-0.4756821291,,,
15.3750000000,61,-2.1120188343,,,
15.3906250000,61,-0.9677297848,,,
15.4062500000,61,4.1980039192,,,
15.4218750000,61,-0.0947504267,,,
15.4375000000,61,-4.1653700123,,,
15.4531250000,61,-0.3769699150,,,
15.4687500000,61,-4.5307729359,,,
15.4843750000,61,-3.6927325718,,,
15.5000000000,62,2.9580843736,,,
15.5156250000,62,0.5424298984,,,
15.5312500000,62,7.3337599376,,,
15.5468750000,62,23.6400613353,,,
15.5625000000,62,24.1111239400,,,
15.5781250000,62,10.0631176729,,,
15.5937500000,62,2.8224865112,33024,15.5996093750,0.0000000000
15.6093750000,62,3.3928677436,,,
15.6250000000,62,2.1519280439,,,
15.6406250000,62,0.1795288645,,,
15.6562500000,62,-6.8226597452,,,
15.6718750000,62,-8.7692677416,,,
15.6875000000,62,-2.4759601703,,,
15.7031250000,62,-7.9520106277,,,
15.7187500000,62,-12.9211794404,,,
15.7343750000,62,-10.9160988060,,,
15.7500000000,63,-13.8796858112,,,
15.7656250000,63,-10.1354494574,,,
15.7812500000,63,-6.2034103492,,,
15.7968750000,63,-11.2306727467,,,
15.8125000000,63,-11.0008466673,,,
15.8281250000,63,-6.1056557759,,,
15.8437500000,63,-6.4633057165,,,
15.8593750000,63,-9.2428101138,,,
15.8750000000,63,-5.0316594465,,,
15.8906250000,63,-2.1135064484,33024,15.8994140625,0.0000000000
15.9062500000,63,-3.6380827588,,,
15.9218750000,63,1.5030278330,,,
15.9375000000,63,1.3829950568,,,
15.9531250000,63,-2.3504318568,,,
15.9687500000,63,1.7827587091,,,
15.9843750000,63,2.0839195414,,,
16.0000000000,64,-0.0706300505,,,
16.0156250000,64,0.1757253693,,,
16.0312500000,64,0.0398887137,,,
16.0468750000,64,0.7845032520,,,
16.0625000000,64,2.2515837688,,,
16.0781250000,64,5.8850774069,,,
16.0937500000,64,6.1164381160,,,
16.1093750000,64,4.9383919177,,,
16.1250000000,64,9.3624543521,,,
16.1406250000,64,10.3253341978,,,
16.1562500000,64,8.6055336686,,,
16.1718750000,64,8.2026324131,,,
16.1875000000,64,7.8626240429,33024,16.1992187500,0.0000000000
16.2031250000,64,8.9420117385,,,
16.2187500000,64,6.8673709787,,,
16.2343750000,64,6.1752498952,,,
16.2500000000,65,5.6784594119,,,
16.2656250000,65,2.5104679828,,,
16.2812500000,65,5.0240569768,,,
16.2968750000,65,4.5095697731,,,
16.3125000000,65,0.8813325570,,,
16.3281250000,65,2.7652312589,,,
16.3437500000,65,3.0273355663,,,
16.3593750000,65,0.4416067436,,,
16.3750000000,65,-1.5178549486,,,
16.3906250000,65,-0.2157523299,,,
16.4062500000,65,-0.8696701726,,,
16.4218750000,65,-4.4423161140,,,
16.4375000000,65,-0.5763525172,,,
16.4531250000,65,1.0568797581,,,
16.4687500000,65,-2.9400675412,,,
16.4843750000,65,-3.2851734967,33024,16.4990234375,0.0000000000
16.5000000000,66,-2.1418673886,,,
16.5156250000,66,1.6668618261,,,
16.5312500000,66,0.2722800059,,,
16.5468750000,66,-5.1788675613,,,
16.5625000000,66,-2.3627232916,,,
16.5781250000,66,-0.9890471988,,,
16.5937500000,66,-3.3231310354,,,
16.6093750000,66,-3.6985660123,,,
16.6250000000,66,-3.1819509950,,,
16.6406250000,66,-2.0523717319,,,
16.6562500000,66,-2.1454985794,,,
16.6718750000,66,0.0370019482,,,
16.6875000000,66,0.4866361048,,,
16.7031250000,66,-0.8663103013,,,
16.7187500000,66,0.9142246216,,,
16.7343750000,66,-3.8456656682,,,
16.7500000000,67,-7.4570193290,,,
16.7656250000,67,-3.2735613173,,,
16.7812500000,67,-1.7639086852,,,
16.7968750000,67,-0.3322011987,33024,16.7998046875,0.0000000000
16.8125000000,67,0.1378542437,,,
16.8281250000,67,-1.5861421855,,,
16.8437500000,67,-3.2377334349,,,
16.8593750000,67,-4.1462390398,,,
16.8750000000,67,-0.8055738652,,,
16.8906250000,67,-0.1266277967,,,
16.9062500000,67,-0.8468655577,,,
16.9218750000,67,0.5380808759,,,
16.9375000000,67,-0.1298055284,,,
16.9531250000,67,0.6813740426,,,
16.9687500000,67,-0.4660386545,,,
16.9843750000,67,-1.5452046301,,,
17.0000000000,68,-0.3034673414,,,
17.0156250000,68,-2.1851353665,,,
17.0312500000,68,0.7403703603,,,
17.0468750000,68,4.1131232110,,,
17.0625000000,68,1.8804485128,,,
17.0781250000,68,1.4260491376,,,
17.0937500000,68,1.1203222074,33024,17.0996093750,0.0000000000
17.1093750000,68,2.3982690488,,,
17.1250000000,68,3.8505765962,,,
17.1406250000,68,4.9857734833,,,
17.1562500000,68,7.7184348032,,,
17.1718750000,68,3.9917301346,,,
17.1875000000,68,0.0604482269,,,
17.2031250000,68,0.2912114954,,,
17.2187500000,68,-0.2230597065,,,
17.2343750000,68,-0.1395070434,,,
17.2500000000,69,-1.5857133914,,,
17.2656250000,69,-0.3881841472,,,
17.2812500000,69,0.2217909459,,,
17.2968750000,69,-2.5138609757,,,
17.3125000000,69,0.5900758196,,,
17.3281250000,69,2.1373040865,,,
17.3437500000,69,0.8684897839,,,
17.3593750000,69,1.7189245873,,,
17.3750000000,69,0.9480205481,,,
17.3906250000,69,1.1787992834,33024,17.3994140625,0.0000000000
17.4062500000,69,-2.2659892639,,,
17.4218750000,69,-6.6015353627,,,
17.4375000000,69,-4.7830346807,,,
17.4531250000,69,-3.4033853368,,,
17.4687500000,69,-2.1627715294,,,
17.4843750000,69,-2.4995173341,,,
17.5000000000,70,-2.8447790552,,,
17.5156250000,70,-0.3468307020,,,
17.5312500000,70,0.0701171580,,,
17.5468750000,70,2.5294210188,,,
17.5625000000,70,3.2852717321,,,
17.5781250000,70,1.2535572332,,,
17.5937500000,70,2.0068765563,,,
17.6093750000,70,0.1536574723,,,
17.6250000000,70,-1.0366124867,,,
17.6406250000,70,-1.1434171114,,,
17.6562500000,70,-1.4892404816,,,
17.6718750000,70,-0.2877780191,,,
17.6875000000,70,-2.8073845464,33024,17.6992187500,0.0000000000
17.7031250000,70,-1.5973211097,,,
17.7187500000,70,1.3764869581,,,
17.7343750000,70,-2.5315389994,,,
17.7500000000,71,-3.2425616284,,,
17.7656250000,71,-0.4484134429,,,
17.7812500000,71,1.8679004884,,,
17.7968750000,71,2.6636975203,,,
17.8125000000,71,2.1594434537,,,
17.8281250000,71,4.8949490434,,,
17.8437500000,71,5.2244641043,,,
17.8593750000,71,3.5078402465,,,
17.8750000000,71,1.1403833115,,,
17.8906250000,71,-1.8764838958,,,
17.9062500000,71,0.7884596242,,,
17.9218750000,71,0.7101784544,,,
17.9375000000,71,-1.7418938620,,,
17.9531250000,71,-1.4022531233,,,
17.9687500000,71,-1.7461684271,,,
17.9843750000,71,2.3751719790,33024,17.9990234375,0.0000000000
18.0000000000,72,3.4656214249,,,
18.0156250000,72,0.2639267107,,,
18.0312500000,72,1.6583257443,,,
18.0468750000,72,0.6453506995,,,
18.0625000000,72,-1.6571544690,,,
18.0781250000,72,-0.7772177311,,,
18.0937500000,72,2.3071805188,,,
18.1093750000,72,2.3592164442,,,
18.1250000000,72,-3.6325433865,,,
18.1406250000,72,-2.7685889814,,,
18.1562500000,72,1.0495605263,,,
18.1718750000,72,-1.4977923913,,,
18.1875000000,72,-3.0003250555,,,
18.2031250000,72,-3.7054423268,,,
18.2187500000,72,-2.3839072050,,,
18.2343750000,72,0.0790510148,,,
18.2500000000,73,0.9819699054,,,
18.2656250000,73,2.9210014405,,,
18.2812500000,73,0.9341886865,,,
18.2968750000,73,-1.8436904105,33024,18.2998046875,0.0000000000
18.3125000000,73,-2.8047703371,,,
18.3281250000,73,-1.7071706317,,,
18.3437500000,73,4.3339438644,,,
18.3593750000,73,2.9489868790,,,
18.3750000000,73,-2.3598856990,,,
18.3906250000,73,-1.2988463748,,,
18.4062500000,73,-1.0153321044,,,
18.4218750000,73,-1.8621281376,,,
18.4375000000,73,-4.2911042952,,,
18.4531250000,73,-3.6712100976,,,
18.4687500000,73,1.5575682134,,,
18.4843750000,73,2.3170280815,,,
18.5000000000,74,2.4064572583,,,
18.5156250000,74,2.4081695428,,,
18.5312500000,74,2.4520327281,,,
18.5468750000,74,2.6683851238,,,
18.5625000000,74,-0.4210316929,,,
18.5781250000,74,1.1495118839,,,
18.5937500000,74,2.0012382704,33024,18.5996093750,0.0000000000
18.6093750000,74,-0.1138884325,,,
18.6250000000,74,2.1986035602,,,
18.6406250000,74,0.0954057915,,,
18.6562500000,74,-2.5603288914,,,
18.6718750000,74,-1.3071070260,,,
18.6875000000,74,-1.7690895630,,,
18.7031250000,74,-0.7535544851,,,
18.7187500000,74,-0.0584308967,,,
18.7343750000,74,-0.5179075599,,,
18.7500000000,75,-1.3034122558,,,
18.7656250000,75,0.1423732239,,,
18.7812500000,75,3.1091776156,,,
18.7968750000,75,-1.0682490055,,,
18.8125000000,75,-1.8805141461,,,
18.8281250000,75,2.3500305345,,,
18.8437500000,75,0.4581208535,,,
18.8593750000,75,0.0151583630,,,
18.8750000000,75,0.9486024754,,,
18.8906250000,75,0.5209106266,33024,18.8994140625,0.0000000000
18.9062500000,75,-1.7031686100,,,
18.9218750000,75,-5.6598103753,,,
18.9375000000,75,-3.4731551930,,,
18.9531250000,75,-0.5216586000,,,
18.9687500000,75,1.4821415851,,,
18.9843750000,75,2.9839564350,,,
19.0000000000,76,-0.4341094334,,,
19.0156250000,76,-0.0104766522,,,
19.0312500000,76,2.6018523909,,,
19.0468750000,76,2.1528690045,,,
19.0625000000,76,-0.0417562927,,,
19.0781250000,76,-2.8935965460,,,
19.0937500000,76,0.5067767266,,,
19.1093750000,76,1.9402479916,,,
19.1250000000,76,-1.1520332102,,,
19.1406250000,76,0.7947345801,,,
19.1562500000,76,0.5944000138,,,
19.1718750000,76,-1.2501082317,,,
19.1875000000,76,-0.5992265824,33024,19.1992187500,0.0000000000
19.2031250000,76,1.5445838861,,,
19.2187500000,76,4.2797614328,,,
19.2343750000,76,1.5119345077,,,
19.2500000000,77,-1.1781923483,,,
19.2656250000,77,-2.2943019605,,,
19.2812500000,77,-2.4776513702,,,
19.2968750000,77,1.8014910965,,,
19.3125000000,77,0.8681661162,,,
19.3281250000,77,-1.6974761978,,,
19.3437500000,77,-0.7623444470,,,
19.3593750000,77,-1.0562387204,,,
19.3750000000,77,0.6246512256,,,
19.3906250000,77,0.3034782968,,,
19.4062500000,77,0.4534961885,,,
19.4218750000,77,3.3453437181,,,
19.4375000000,77,1.4060409060,,,
19.4531250000,77,-0.9352649422,,,
19.4687500000,77,-1.8944561307,,,
19.4843750000,77,-0.9645583854,33024,19.4990234375,0.0000000000
19.5000000000,78,0.0607624813,,,
19.5156250000,78,-2.1505446151,,,
19.5312500000,78,0.1779838682,,,
19.5468750000,78,2.2517693460,,,
19.5625000000,78,1.0506653604,,,
19.5781250000,78,1.9192495725,,,
19.5937500000,78,1.9242374044,,,
19.6093750000,78,2.4882246368,,,
19.6250000000,78,-0.5743719832,,,
19.6406250000,78,-4.1949811773,,,
19.6562500000,78,-0.7766110490,,,
19.6718750000,78,-0.4798330214,,,
19.6875000000,78,-1.5219708132,,,
19.7031250000,78,-0.3836896685,,,
19.7187500000,78,-1.1027969611,,,
19.7343750000,78,-1.1321749093,,,
19.7500000000,79,-1.3349833173,,,
19.7656250000,79,0.6700849494,,,
19.7812500000,79,0.1276698849,,,
19.7968750000,79,-3.6400381779,33024,19.7998046875,0.0000000000
19.8125000000,79,-1.4138042854,,,
19.8281250000,79,-0.2882803044,,,
19.8437500000,79,0.5210947900,,,
19.8593750000,79,2.7677979433,,,
19.8750000000,79,0.6966061447,,,
19.8906250000,79,-0.5826810088,,,
19.9062500000,79,-1.6107538280,,,
19.9218750000,79,1.1597891418,,,
19.9375000000,79,4.6369781016,,,
19.9531250000,79,-1.0534004722,,,
19.9687500000,79,-3.9850989139,,,
19.9843750000,79,-1.2239635608,,,
20.0000000000,80,0.2215438214,,,
20.0156250000,80,0.1134809043,,,
20.0312500000,80,-0.8480235922,,,
20.0468750000,80,0.6234793467,,,
20.0625000000,80,0.4888074617,,,
20.0781250000,80,0.7580132969,,,
20.0937500000,80,2.5321964352,33024,20.0996093750,0.0000000000
20.1093750000,80,-0.2236127237,,,
20.1250000000,80,-0.0283743532,,,
20.1406250000,80,0.3806076870,,,
20.1562500000,80,-0.7264181767,,,
20.1718750000,80,2.9370155667,,,
20.1875000000,80,2.5364071224,,,
20.2031250000,80,0.5767997839,,,
20.2187500000,80,0.7761726658,,,
20.2343750000,80,0.8352194991,,,
20.2500000000,81,2.6097290985,,,
20.2656250000,81,0.1654134330,,,
20.2812500000,81,-1.6002888816,,,
20.2968750000,81,1.2063542651,,,
20.3125000000,81,2.9651981864,,,
20.3281250000,81,1.9710631430,,,
20.3437500000,81,-4.3894413468,,,
20.3593750000,81,-5.7966139267,,,
20.3750000000,81,-1.2480416411,,,
20.3906250000,81,-1.9859778390,33024,20.3994140625,0.0000000000
20.4062500000,81,-2.4483704437,,,
20.4218750000,81,-1.2826776180,,,
20.4375000000,81,1.0334736869,,,
20.4531250000,81,2.6343050909,,,
20.4687500000,81,0.6801730253,,,
20.4843750000,81,2.7006280450,,,
20.5000000000,82,2.1415657912,,,
20.5156250000,82,-1.8839166566,,,
20.5312500000,82,-1.0295745731,,,
20.5468750000,82,1.1021326542,,,
20.5625000000,82,4.1812806501,,,
20.5781250000,82,2.3961398781,,,
20.5937500000,82,-1.8519107956,,,
20.6093750000,82,0.2073024342,,,
20.6250000000,82,1.7662538187,,,
20.6406250000,82,1.1600488804,,,
20.6562500000,82,-2.3101046419,,,
20.6718750000,82,-3.6690512355,,,
20.6875000000,82,1.3035954991,33024,20.6992187500,0.0000000000
20.7031250000,82,0.1845779837,,,
20.7187500000,82,-3.5543937064,,,
20.7343750000,82,-4.3332957886,,,
20.7500000000,83,-3.7127505383,,,
20.7656250000,83,-0.3530682617,,,
20.7812500000,83,-2.0231083286,,,
20.7968750000,83,-3.8308998051,,,
20.8125000000,83,-0.8423802790,,,
20.8281250000,83,1.9185940208,,,
20.8437500000,83,3.3234292082,,,
20.8593750000,83,-0.5717101869,,,
20.8750000000,83,-1.5130553558,,,
20.8906250000,83,1.5944299624,,,
20.9062500000,83,1.5961843087,,,
20.9218750000,83,2.4338183861,,,
20.9375000000,83,-0.9789089998,,,
20.9531250000,83,-2.6203310599,,,
20.9687500000,83,2.5647107271,,,
20.9843750000,83,1.3508591560,33024,20.9990234375,0.0000000000
21.0000000000,84,-2.5236514826,,,
21.0156250000,84,-2.6096886323,,,
21.0312500000,84,-0.1289539455,,,
21.0468750000,84,1.1122452470,,,
21.0625000000,84,0.1027665935,,,
21.0781250000,84,3.9096228376,,,
21.0937500000,84,5.6037176937,,,
21.1093750000,84,3.5754958736,,,
21.1250000000,84,3.0649751453,,,
21.1406250000,84,1.0367584908,,,
21.1562500000,84,2.5622321927,,,
21.1718750000,84,1.9403509983,,,
21.1875000000,84,-2.6937738440,,,
21.2031250000,84,-2.8052049117,,,
21.2187500000,84,-3.5122841756,,,
21.2343750000,84,-1.9650705372,,,
21.2500000000,85,-0.9331962702,,,
21.2656250000,85,-3.9770999625,,,
21.2812500000,85,-2.9671331880,,,
21.2968750000,85,-3.5571598239,33024,21.2998046875,0.0000000000
21.3125000000,85,-1.1977642182,,,
21.3281250000,85,-4.4143007217,,,
21.3437500000,85,-18.0804868476,,,
21.3593750000,85,-6.1579624636,,,
21.3750000000,85,16.0698770172,,,
21.3906250000,85,13.5390987000,,,
21.4062500000,85,4.7106763305,,,
21.4218750000,85,5.2196828151,,,
21.4375000000,85,8.4281834064,,,
21.4531250000,85,4.0959763428,,,
21.4687500000,85,0.2462844447,,,
21.4843750000,85,1.9242295191,,,
21.5000000000,86,0.4709461906,,,
21.5156250000,86,0.4876358547,,,
21.5312500000,86,-0.8528059476,,,
21.5468750000,86,-1.8243021349,,,
21.5625000000,86,1.9590670594,,,
21.5781250000,86,0.6932934913,,,
21.5937500000,86,-1.1657978170,33024,21.5996093750,0.0000000000
21.6093750000,86,-0.1281751766,,,
21.6250000000,86,3.5860561147,,,
21.6406250000,86,3.7931506784,,,
21.6562500000,86,-5.2220645515,,,
21.6718750000,86,-4.2175486855,,,
21.6875000000,86,1.4093832087,,,
21.7031250000,86,-0.6504413106,,,
21.7187500000,86,1.3001097199,,,
21.7343750000,86,2.1294255531,,,
21.7500000000,87,0.7986227989,,,
21.7656250000,87,-0.0188134365,,,
21.7812500000,87,-3.2403565013,,,
21.7968750000,87,-6.2166709184,,,
21.8125000000,87,-9.0816227495,,,
21.8281250000,87,-5.0927177402,,,
21.8437500000,87,-1.4879754957,,,
21.8593750000,87,-2.6815346495,,,
21.8750000000,87,1.8937024634,,,
21.8906250000,87,0.5019543162,33024,21.8994140625,0.0000000000
21.9062500000,87,-4.8123401987,,,
21.9218750000,87,-3.7621291332,,,
21.9375000000,87,-2.3966130387,,,
21.9531250000,87,-1.8399635234,,,
21.9687500000,87,-5.5221187448,,,
21.9843750000,87,-5.1974552364,,,
22.0000000000,88,0.1887905046,,,
22.0156250000,88,0.1478904178,,,
22.0312500000,88,1.7506139174,,,
22.0468750000,88,1.8769722243,,,
22.0625000000,88,0.0873739207,,,
22.0781250000,88,1.4555387541,,,
22.0937500000,88,1.6999809526,,,
22.1093750000,88,3.6935914421,,,
22.1250000000,88,6.5898054592,,,
22.1406250000,88,14.0103480166,,,
22.1562500000,88,16.6474566527,,,
22.1718750000,88,1.2952181925,,,
22.1875000000,88,-8.9329340289,33024,22.1992187500,0.0000000000
22.2031250000,88,-5.0014526638,,,
22.2187500000,88,-2.9222998140,,,
22.2343750000,88,-5.7509217060,,,
22.2500000000,89,-1.6607820234,,,
22.2656250000,89,8.2013833782,,,
22.2812500000,89,2.6125306878,,,
22.2968750000,89,-6.4343056062,,,
22.3125000000,89,-3.4550993171,,,
22.3281250000,89,-2.6487312926,,,
22.3437500000,89,-1.0665550258,,,
22.3593750000,89,1.3438753773,,,
22.3750000000,89,0.2996986571,,,
22.3906250000,89,2.4580222209,,,
22.4062500000,89,2.3866667098,,,
22.4218750000,89,1.9072004440,,,
22.4375000000,89,0.7979220932,,,
22.4531250000,89,-3.5041733912,,,
22.4687500000,89,-0.2400472624,,,
22.4843750000,89,2.7869549946,33024,22.4990234375,0.0000000000
22.5000000000,90,0.3583654226,,,
22.5156250000,90,-1.0198771508,,,
22.5312500000,90,-2.1270905501,,,
22.5468750000,90,-0.3541552197,,,
22.5625000000,90,0.0347200057,,,
22.5781250000,90,1.4941926658,,,
22.5937500000,90,4.7480628526,,,
22.6093750000,90,1.4528360418,,,
22.6250000000,90,0.3097213513,,,
22.6406250000,90,0.7958958339,,,
22.6562500000,90,2.0986500271,,,
22.6718750000,90,4.9123232176,,,
22.6875000000,90,-0.0454035146,,,
22.7031250000,90,-0.8256478326,,,
22.7187500000,90,1.3214747162,,,
22.7343750000,90,-3.0174738633,,,
22.7500000000,91,-2.7232223252,,,
22.7656250000,91,0.3248705332,,,
22.7812500000,91,1.9106930309,,,
22.7968750000,91,1.9428778763,33024,22.7998046875,0.0000000000
22.8125000000,91,1.4576970638,,,
22.8281250000,91,1.7623390106,,,
22.8437500000,91,-2.5362358075,,,
22.8593750000,91,-4.0085384380,,,
22.8750000000,91,-1.9761003250,,,
22.8906250000,91,-0.3737763913,,,
22.9062500000,91,3.8476786910,,,
22.9218750000,91,1.7955238826,,,
22.9375000000,91,-1.3786745558,,,
22.9531250000,91,-1.4508176981,,,
22.9687500000,91,-3.7568929134,,,
22.9843750000,91,-2.5695731305,,,
23.0000000000,92,-3.8706702835,,,
23.0156250000,92,-4.6456073562,,,
23.0312500000,92,0.4544164023,,,
23.0468750000,92,1.0125862725,,,
23.0625000000,92,0.5008809183,,,
23.0781250000,92,-0.5192301831,,,
23.0937500000,92,-1.4556552638,33024,23.0996093750,0.0000000000
23.1093750000,92,-0.7110785598,,,
23.1250000000,92,-2.2335334631,,,
23.1406250000,92,1.9903628780,,,
23.1562500000,92,1.7270393802,,,
23.1718750000,92,-4.3211723118,,,
23.1875000000,92,-0.4393985642,,,
23.2031250000,92,0.9750452783,,,
23.2187500000,92,-0.8843931790,,,
23.2343750000,92,-0.2425052242,,,
23.2500000000,93,0.9620164964,,,
23.2656250000,93,0.5848079010,,,
23.2812500000,93,-9.9853580326,,,
23.2968750000,93,-9.4474917251,,,
23.3125000000,93,6.2817996683,,,
23.3281250000,93,9.6674831841,,,
23.3437500000,93,5.0020174391,,,
23.3593750000,93,4.3556581365,,,
23.3750000000,93,6.8436746869,,,
23.3906250000,93,4.9495988671,33024,23.3994140625,0.0000000000
23.4062500000,93,0.9866445397,,,
23.4218750000,93,2.1373248037,,,
23.4375000000,93,-0.0477493791,,,
23.4531250000,93,-0.7013005023,,,
23.4687500000,93,0.7548216073,,,
23.4843750000,93,-0.2930071546,,,
23.5000000000,94,3.5968037841,,,
23.5156250000,94,2.4269452659,,,
23.5312500000,94,-1.2060431345,,,
23.5468750000,94,0.8048441361,,,
23.5625000000,94,0.0940488369,,,
23.5781250000,94,-0.5387072338,,,
23.5937500000,94,-2.0771768638,,,
23.6093750000,94,-2.1931426782,,,
23.6250000000,94,-0.1815920316,,,
23.6406250000,94,-0.9213706094,,,
23.6562500000,94,2.5092697842,,,
23.6718750000,94,2.0251120564,,,
23.6875000000,94,-3.9069631141,33024,23.6992187500,0.0000000000
23.7031250000,94,-6.7540937329,,,
23.7187500000,94,-7.7907550782,,,
23.7343750000,94,-2.9316175482,,,
23.7500000000,95,-2.3650615150,,,
23.7656250000,95,-7.0085334474,,,
23.7812500000,95,-4.2802671752,,,
23.7968750000,95,-1.8092886802,,,
23.8125000000,95,-0.6454390916,,,
23.8281250000,95,-0.2551884524,,,
23.8437500000,95,0.4868459551,,,
23.8593750000,95,3.7958387089,,,
23.8750000000,95,-0.7128580700,,,
23.8906250000,95,-2.4679164504,,,
23.9062500000,95,3.2587121934,,,
23.9218750000,95,-1.0503377447,,,
23.9375000000,95,-12.6368839296,,,
23.9531250000,95,-12.6463034353,,,
23.9687500000,95,6.1370519656,,,
23.9843750000,95,14.3323304326,33024,23.9990234375,0.0000000000
24.0000000000,96,2.9563248532,,,
24.0156250000,96,4.5599006797,,,
24.0312500000,96,10.1902936850,,,
24.0468750000,96,3.6584223141,,,
24.0625000000,96,-1.1325529451,,,
24.0781250000,96,0.4420888133,,,
24.0937500000,96,4.0248470203,,,
24.1093750000,96,1.8516827519,,,
24.1250000000,96,0.3680630411,,,
24.1406250000,96,3.1111438701,,,
24.1562500000,96,3.6526317718,,,
24.1718750000,96,7.5814324148,,,
24.1875000000,96,7.8059252461,,,
24.2031250000,96,6.5484818787,,,
24.2187500000,96,19.9455615278,,,
24.2343750000,96,31.5829718866,,,
24.2500000000,97,13.7759314873,,,
24.2656250000,97,-17.6511462253,,,
24.2812500000,97,-20.9707242133,,,
24.2968750000,97,-11.5016403411,33024,24.2998046875,0.0000000000
24.3125000000,97,-17.0298058890,,,
24.3281250000,97,-17.3614784833,,,
24.3437500000,97,-13.1245220057,,,
24.3593750000,97,-11.2014317271,,,
24.3750000000,97,-5.6786495979,,,
24.3906250000,97,-6.5623039610,,,
24.4062500000,97,-7.7431456319,,,
24.4218750000,97,-3.3151998353,,,
24.4375000000,97,-0.9214478955,,,
24.4531250000,97,-1.5691690005,,,
24.4687500000,97,-3.9553046903,,,
24.4843750000,97,-3.2782318706,,,
24.5000000000,98,-2.6009446340,,,
24.5156250000,98,-1.9945966125,,,
24.5312500000,98,2.5727504918,,,
24.5468750000,98,2.6215259105,,,
24.5625000000,98,2.4408269254,,,
24.5781250000,98,4.0171233368,,,
24.5937500000,98,3.2438299841,33024,24.5996093750,0.0000000000
24.6093750000,98,6.8264701060,,,
24.6250000000,98,7.1452828840,,,
24.6406250000,98,6.2690727938,,,
24.6562500000,98,10.3868144490,,,
24.6718750000,98,7.3463269964,,,
24.6875000000,98,4.0563469043,,,
24.7031250000,98,1.6242857765,,,
24.7187500000,98,-2.0375482783,,,
24.7343750000,98,0.1980088121,,,
24.7500000000,99,-5.6127765839,,,
24.7656250000,99,-7.3356139940,,,
24.7812500000,99,1.3424050678,,,
24.7968750000,99,-0.0258217501,,,
24.8125000000,99,1.6575506843,,,
24.8281250000,99,5.0581694833,,,
24.8437500000,99,-0.4244305810,,,
24.8593750000,99,-6.6589550880,,,
24.8750000000,99,-2.7862864557,,,
24.8906250000,99,14.1571347835,33024,24.8994140625,0.0000000000
24.9062500000,99,11.0816296305,,,
24.9218750000,99,-1.8290817296,,,
24.9375000000,99,15.9548148380,,,
24.9531250000,99,29.2947769031,,,
24.9687500000,99,7.3018504539,,,
24.9843750000,99,-4.3479283000,,,
25.0000000000,100,4.4267548492,,,
25.0156250000,100,-8.7026554054,,,
25.0312500000,100,-15.1489952867,,,
25.0468750000,100,-2.7084344503,,,
25.0625000000,100,-12.0822210321,,,
25.0781250000,100,-17.5125966496,,,
25.0937500000,100,-8.3395391656,,,
25.1093750000,100,-7.6446219197,,,
25.1250000000,100,-4.7248989137,,,
25.1406250000,100,-0.9325432867,,,
25.1562500000,100,-3.3243451755,,,
25.1718750000,100,-4.1717987388,,,
25.1875000000,100,-1.4773962239,33024,25.1992187500,0.0000000000
25.2031250000,100,1.0399789272,,,
25.2187500000,100,-1.5370899351,,,
25.2343750000,100,-3.4274550303,,,
25.2500000000,101,-1.2805316149,,,
25.2656250000,101,-2.5148133342,,,
25.2812500000,101,-3.7972644261,,,
25.2968750000,101,-2.9318884589,,,
25.3125000000,101,3.4754344670,,,
25.3281250000,101,10.5288700312,,,
25.3437500000,101,3.6247965557,,,
25.3593750000,101,0.4280437326,,,
25.3750000000,101,7.8753369911,,,
25.3906250000,101,7.6553007907,,,
25.4062500000,101,3.5593750043,,,
25.4218750000,101,1.3497804639,,,
25.4375000000,101,0.6446731006,,,
25.4531250000,101,0.4297672237,,,
25.4687500000,101,0.5610611668,,,
25.4843750000,101,0.7993129048,33024,25.4990234375,0.0000000000
25.5000000000,102,-4.3519602321,,,
25.5156250000,102,-4.3577129556,,,
25.5312500000,102,-0.0483138488,,,
25.5468750000,102,-4.4415432179,,,
25.5625000000,102,-5.0856680241,,,
25.5781250000,102,-0.6019709384,,,
25.5937500000,102,0.3170908024,,,
25.6093750000,102,0.2287743112,,,
25.6250000000,102,-1.1011592006,,,
25.6406250000,102,-1.3791646109,,,
25.6562500000,102,-0.9845522685,,,
25.6718750000,102,0.9678664383,,,
25.6875000000,102,2.0683427178,,,
25.7031250000,102,-1.1055228511,,,
25.7187500000,102,1.0369723046,,,
25.7343750000,102,2.9651498639,,,
25.7500000000,103,0.4138374497,,,
25.7656250000,103,1.1454869308,,,
25.7812500000,103,0.7315950834,,,
25.7968750000,103,0.8444132668,33024,25.7998046875,0.0000000000
25.8125000000,103,0.6754542857,,,
25.8281250000,103,-0.6652259080,,,
25.8437500000,103,2.7484458405,,,
25.8593750000,103,3.7164741286,,,
25.8750000000,103,1.8822728090,,,
25.8906250000,103,1.1472428790,,,
25.9062500000,103,0.4331238610,,,
25.9218750000,103,0.3725853423,,,
25.9375000000,103,-1.5630491780,,,
25.9531250000,103,-1.0234405433,,,
25.9687500000,103,-0.1159778383,,,
25.9843750000,103,-0.7563372819,,,
26.0000000000,104,2.4952151802,,,
26.0156250000,104,1.3367494719,,,
26.0312500000,104,0.0255039208,,,
26.0468750000,104,3.0493761370,,,
26.0625000000,104,0.0217184789,,,
26.0781250000,104,-2.2985443141,,,
26.0937500000,104,-0.2258159565,33024,26.0996093750,0.0000000000
26.1093750000,104,1.0554876748,,,
26.1250000000,104,-0.0017729754,,,
26.1406250000,104,-1.2625860245,,,
26.1562500000,104,2.0138655475,,,
26.1718750000,104,0.9651940104,,,
26.1875000000,104,-2.3662958954,,,
26.2031250000,104,0.0784834880,,,
26.2187500000,104,0.1238751275,,,
26.2343750000,104,-1.2173805063,,,
26.2500000000,105,-2.6703792999,,,
26.2656250000,105,-1.4463131265,,,
26.2812500000,105,2.4500750611,,,
26.2968750000,105,-1.0470753541,,,
26.3125000000,105,-1.3686814886,,,
26.3281250000,105,2.0815133169,,,
26.3437500000,105,-0.7487167186,,,
26.3593750000,105,-0.3439801499,,,
26.3750000000,105,0.9383052410,,,
26.3906250000,105,-2.8536198712,33024,26.3994140625,0.0000000000
26.4062500000,105,-6.4834722923,,,
26.4218750000,105,-4.4774093560,,,
26.4375000000,105,0.5375041970,,,
26.4531250000,105,-1.3819117600,,,
26.4687500000,105,-2.9987555574,,,
26.4843750000,105,0.3513753794,,,
26.5000000000,106,1.9591470310,,,
26.5156250000,106,2.5197056177,,,
26.5312500000,106,0.6618916597,,,
26.5468750000,106,1.1622069282,,,
26.5625000000,106,1.0460957560,,,
26.5781250000,106,-3.5373934066,,,
26.5937500000,106,-0.9297416950,,,
26.6093750000,106,0.5161232877,,,
26.6250000000,106,-2.5025718075,,,
26.6406250000,106,0.6382833009,,,
26.6562500000,106,3.2932825149,,,
26.6718750000,106,2.4635411690,,,
26.6875000000,106,1.2553426709,33024,26.6992187500,0.0000000000
26.7031250000,106,3.6049986394,,,
26.7187500000,106,5.5797940769,,,
26.7343750000,106,0.5603003499,,,
26.7500000000,107,-0.7740668289,,,
26.7656250000,107,1.2497590989,,,
26.7812500000,107,1.7325635921,,,
26.7968750000,107,0.3222833602,,,
26.8125000000,107,-5.8141804709,,,
26.8281250000,107,-4.4084377278,,,
26.8437500000,107,-0.5510964151,,,
26.8593750000,107,-4.7577973207,,,
26.8750000000,107,-3.2991618210,,,
26.8906250000,107,2.7310249638,,,
26.9062500000,107,4.2760291949,,,
26.9218750000,107,1.3099428436,,,
26.9375000000,107,-0.0789263101,,,
26.9531250000,107,3.0923681492,,,
26.9687500000,107,1.8084008313,,,
26.9843750000,107,1.4242796755,33024,26.9990234375,0.0000000000
27.0000000000,108,3.3272124720,,,
27.0156250000,108,0.1399542140,,,
27.0312500000,108,-0.5038649027,,,
27.0468750000,108,-1.5881558551,,,
27.0625000000,108,-3.8992250469,,,
27.0781250000,108,-3.4826677963,,,
27.0937500000,108,-3.3903972122,,,
27.1093750000,108,0.4793156167,,,
27.1250000000,108,1.9316023852,,,
27.1406250000,108,1.0187783302,,,
27.1562500000,108,3.6565131663,,,
27.1718750000,108,2.4552610621,,,
27.1875000000,108,0.0931954968,,,
27.2031250000,108,-1.7912279375,,,
27.2187500000,108,-0.8841166182,,,
27.2343750000,108,2.8874876053,,,
27.2500000000,109,0.1543170742,,,
27.2656250000,109,-1.7614262089,,,
27.2812500000,109,-1.4293595311,,,
27.2968750000,109,-1.4698361303,33024,27.2998046875,0.0000000000
27.3125000000,109,0.6763561490,,,
27.3281250000,109,-1.0365178889,,,
27.3437500000,109,-0.5431132223,,,
27.3593750000,109,1.7523725136,,,
27.3750000000,109,0.7702367035,,,
27.3906250000,109,1.2142812497,,,
27.4062500000,109,-0.2617424509,,,
27.4218750000,109,0.1097462411,,,
27.4375000000,109,0.2791260745,,,
27.4531250000,109,-3.0810633322,,,
27.4687500000,109,-0.5088271635,,,
27.4843750000,109,2.7957486001,,,
27.5000000000,110,3.3377143386,,,
27.5156250000,110,0.8055874278,,,
27.5312500000,110,-4.2328310309,,,
27.5468750000,110,-2.8011360310,,,
27.5625000000,110,-1.6366996536,,,
27.5781250000,110,-3.0783835134,,,
27.5937500000,110,-2.1784461021,33024,27.5996093750,0.0000000000
27.6093750000,110,-0.0454188012,,,
27.6250000000,110,3.3144676569,,,
27.6406250000,110,-0.3104482032,,,
27.6562500000,110,-2.9840766679,,,
27.6718750000,110,4.3613951844,,,
27.6875000000,110,6.1151169304,,,
27.7031250000,110,-0.5243698971,,,
27.7187500000,110,-6.3979895334,,,
27.7343750000,110,-3.7049392328,,,
27.7500000000,111,1.4699534784,,,
27.7656250000,111,-0.5539249068,,,
27.7812500000,111,1.4760263069,,,
27.7968750000,111,3.7121621319,,,
27.8125000000,111,1.3704020212,,,
27.8281250000,111,2.4889836237,,,
27.8437500000,111,1.1303686404,,,
27.8593750000,111,0.2131189780,,,
27.8750000000,111,0.7521161972,,,
27.8906250000,111,-1.1927689223,33024,27.8994140625,0.0000000000
27.9062500000,111,-1.3505651727,,,
27.9218750000,111,-2.4078786199,,,
27.9375000000,111,-1.7491757024,,,
27.9531250000,111,-0.2889937921,,,
27.9687500000,111,-1.0114038612,,,
27.9843750000,111,-0.2526379242,,,
28.0000000000,112,-1.1399759615,,,
28.0156250000,112,0.3817293245,,,
28.0312500000,112,1.3837535005,,,
28.0468750000,112,-1.4967503929,,,
28.0625000000,112,1.4756298486,,,
28.0781250000,112,3.4491187629,,,
28.0937500000,112,2.2318160721,,,
28.1093750000,112,0.9199236597,,,
28.1250000000,112,-1.9875382088,,,
28.1406250000,112,-0.0020089764,,,
28.1562500000,112,-0.1940242753,,,
28.1718750000,112,-2.2380219107,,,
28.1875000000,112,0.3781302485,33024,28.1992187500,0.0000000000
28.2031250000,112,0.4101153038,,,
28.2187500000,112,-0.2307121471,,,
28.2343750000,112,-1.6346626852,,,
28.2500000000,113,-1.3585334352,,,
28.2656250000,113,3.2012351986,,,
28.2812500000,113,4.5221339280,,,
28.2968750000,113,4.4957883149,,,
28.3125000000,113,-0.1517415547,,,
28.3281250000,113,-4.6636475464,,,
28.3437500000,113,-0.3422475926,,,
28.3593750000,113,0.8341499649,,,
28.3750000000,113,-0.9409579985,,,
28.3906250000,113,-2.2471473293,,,
28.4062500000,113,-2.4645518974,,,
28.4218750000,113,1.2878328495,,,
28.4375000000,113,-0.0140128164,,,
28.4531250000,113,-1.1366039951,,,
28.4687500000,113,1.5959502887,,,
28.4843750000,113,0.8697678079,33024,28.4990234375,0.0000000000
28.5000000000,114,0.3800730276,,,
28.5156250000,114,1.1235825406,,,
28.5312500000,114,3.5254034597,,,
28.5468750000,114,2.1749430823,,,
28.5625000000,114,-3.6497557674,,,
28.5781250000,114,-3.6834097496,,,
28.5937500000,114,-3.2440937271,,,
28.6093750000,114,-2.4704202217,,,
28.6250000000,114,-0.0988231675,,,
28.6406250000,114,-1.3133191205,,,
28.6562500000,114,-0.3330803519,,,
28.6718750000,114,0.8382538771,,,
28.6875000000,114,1.5644958232,,,
28.7031250000,114,1.7548485141,,,
28.7187500000,114,-1.1880112389,,,
28.7343750000,114,1.2929167812,,,
28.7500000000,115,3.0737447207,,,
28.7656250000,115,1.1334639926,,,
28.7812500000,115,1.4991941241,,,
28.7968750000,115,-0.5190046717,33024,28.7998046875,0.0000000000
28.8125000000,115,-1.4600562413,,,
28.8281250000,115,-1.7510295161,,,
28.8437500000,115,-1.3183929569,,,
28.8593750000,115,1.1688621220,,,
28.8750000000,115,-0.7798540990,,,
28.8906250000,115,-0.9788410328,,,
28.9062500000,115,0.2404091524,,,
28.9218750000,115,-0.0748552469,,,
28.9375000000,115,1.2131878477,,,
28.9531250000,115,0.0773542590,,,
28.9687500000,115,-0.4137939817,,,
28.9843750000,115,-0.4927920758,,,
29.0000000000,116,-0.4104788273,,,
29.0156250000,116,1.6843343809,,,
29.0312500000,116,-0.9702404247,,,
29.0468750000,116,-1.3197987421,,,
29.0625000000,116,1.8035750215,,,
29.0781250000,116,0.3833045339,,,
29.0937500000,116,-0.4872235000,33024,29.0996093750,0.0000000000
29.1093750000,116,-1.6037278628,,,
29.1250000000,116,-1.9882182766,,,
29.1406250000,116,-0.0801717599,,,
29.1562500000,116,2.0293118181,,,
29.1718750000,116,5.4723355714,,,
29.1875000000,116,3.0708323021,,,
29.2031250000,116,-1.3668613672,,,
29.2187500000,116,-2.3440674385,,,
29.2343750000,116,-2.3889882977,,,
29.2500000000,117,2.4032929235,,,
29.2656250000,117,3.9141136344,,,
29.2812500000,117,1.1892650488,,,
29.2968750000,117,-0.0280155065,,,
29.3125000000,117,-4.2367002958,,,
29.3281250000,117,-4.2556828987,,,
29.3437500000,117,-1.4612561256,,,
29.3593750000,117,-0.9803584679,,,
29.3750000000,117,1.2496016051,,,
29.3906250000,117,0.1391117619,33024,29.3994140625,0.0000000000
29.4062500000,117,-0.4284239755,,,
29.4218750000,117,1.9256514098,,,
29.4375000000,117,2.4695802012,,,
29.4531250000,117,1.7925848151,,,
29.4687500000,117,-2.1959152221,,,
29.4843750000,117,-1.3673373325,,,
29.5000000000,118,2.9592288242,,,
29.5156250000,118,2.1837389076,,,
29.5312500000,118,1.2224702470,,,
29.5468750000,118,-2.6895495318,,,
29.5625000000,118,-4.5916559061,,,
29.5781250000,118,-0.6128372449,,,
29.5937500000,118,-0.3644093985,,,
29.6093750000,118,-1.9716834797,,,
29.6250000000,118,-3.0904146431,,,
29.6406250000,118,-0.5473017408,,,
29.6562500000,118,2.6478249674,,,
29.6718750000,118,0.3222647309,,,
29.6875000000,118,1.0069034022,33024,29.6992187500,0.0000000000
29.7031250000,118,2.0009669109,,,
29.7187500000,118,0.6412630132,,,
29.7343750000,118,1.2222374364,,,
29.7500000000,119,1.2459211641,,,
29.7656250000,119,3.4676796188,,,
29.7812500000,119,2.1515309076,,,
29.7968750000,119,-2.3907005487,,,
29.8125000000,119,-1.7182790224,,,
29.8281250000,119,-1.4202235273,,,
29.8437500000,119,-1.0880767419,,,
29.8593750000,119,-0.6463236971,,,
29.8750000000,119,-1.3549709226,,,
29.8906250000,119,0.4422679370,,,
29.9062500000,119,2.3442833478,,,
29.9218750000,119,1.0329247562,,,
29.9375000000,119,-3.1950528578,,,
29.9531250000,119,-1.6710694106,,,
29.9687500000,119,1.4079519919,,,
29.9843750000,119,-2.1290822351,33024,29.9990234375,0.0000000000
30.0000000000,120,-2.2347666340,,,
30.0156250000,120,-0.2584619135,,,
30.0312500000,120,-0.2223904710,,,
30.0468750000,120,-1.5017073561,,,
30.0625000000,120,-3.2870531989,,,
30.0781250000,120,-1.2915002366,,,
30.0937500000,120,-2.3024427507,,,
30.1093750000,120,-1.7544058427,,,
30.1250000000,120,4.0402181488,,,
30.1406250000,120,3.7102423765,,,
30.1562500000,120,3.0821914267,,,
30.1718750000,120,3.9241856307,,,
30.1875000000,120,1.8430197080,,,
30.2031250000,120,1.6148527819,,,
30.2187500000,120,0.6902348115,,,
30.2343750000,120,0.0944824904,,,
30.2500000000,121,0.6854611411,,,
30.2656250000,121,-0.9505397907,,,
30.2812500000,121,-0.6670148869,,,
30.2968750000,121,0.1898347641,33024,30.2998046875,0.0000000000
30.3125000000,121,0.5198109102,,,
30.3281250000,121,1.2428556123,,,
30.3437500000,121,-0.2356050464,,,
30.3593750000,121,0.6256274737,,,
30.3750000000,121,1.1165715031,,,
30.3906250000,121,-0.8559951252,,,
30.4062500000,121,0.7386628218,,,
30.4218750000,121,0.9885500446,,,
30.4375000000,121,0.5531503594,,,
30.4531250000,121,0.2415542955,,,
30.4687500000,121,-1.4766295469,,,
30.4843750000,121,1.4492916221,,,
30.5000000000,122,-0.7613794882,,,
30.5156250000,122,-4.1537509195,,,
30.5312500000,122,-1.0966435903,,,
30.5468750000,122,-2.8944780005,,,
30.5625000000,122,0.1632081900,,,
30.5781250000,122,4.8338113454,,,
30.5937500000,122,0.7620026078,33024,30.5996093750,0.0000000000
30.6093750000,122,-0.8760178317,,,
30.6250000000,122,-0.8235036747,,,
30.6406250000,122,-1.1460539606,,,
30.6562500000,122,-1.5287762261,,,
30.6718750000,122,0.2124564133,,,
30.6875000000,122,3.1754399614,,,
30.7031250000,122,0.0864563680,,,
30.7187500000,122,-2.3140636636,,,
30.7343750000,122,-2.9536039331,,,
30.7500000000,123,-2.2409210802,,,
30.7656250000,123,0.6862449273,,,
30.7812500000,123,-1.8668076055,,,
30.7968750000,123,-1.7494814779,,,
30.8125000000,123,2.3405894176,,,
30.8281250000,123,2.2443500598,,,
30.8437500000,123,1.0468724311,,,
30.8593750000,123,0.3178590146,,,
30.8750000000,123,0.9481699695,,,
30.8906250000,123,-1.6441058257,33024,30.8994140625,0.0000000000
30.9062500000,123,-2.0260340446,,,
30.9218750000,123,4.5878409461,,,
30.9375000000,123,3.1748641216,,,
30.9531250000,123,-1.0658710813,,,
30.9687500000,123,-0.9310733426,,,
30.9843750000,123,-2.3792651647,,,
31.0000000000,124,-1.2458117350,,,
31.0156250000,124,0.1565884203,,,
31.0312500000,124,-1.0949330623,,,
31.0468750000,124,-3.3836017772,,,
31.0625000000,124,-2.6515630585,,,
31.0781250000,124,3.0034818418,,,
31.0937500000,124,2.0339481574,,,
31.1093750000,124,-1.7570041590,,,
31.1250000000,124,0.0880334463,,,
31.1406250000,124,2.6382531602,,,
31.1562500000,124,3.2122765506,,,
31.1718750000,124,-1.7263163506,,,
31.1875000000,124,-1.6186044755,33024,31.1992187500,0.0000000000
31.2031250000,124,5.1016527954,,,
31.2187500000,124,3.5100877172,,,
31.2343750000,124,-0.3915884877,,,
31.2500000000,125,-3.9264681314,,,
31.2656250000,125,-5.4659553086,,,
31.2812500000,125,-0.0228991842,,,
31.2968750000,125,1.9628296045,,,
31.3125000000,125,0.2858304929,,,
31.3281250000,125,0.0807341990,,,
31.3437500000,125,1.1823396975,,,
31.3593750000,125,1.7319449811,,,
31.3750000000,125,1.8164227415,,,
31.3906250000,125,6.1605239292,,,
31.4062500000,125,5.2326815117,,,
31.4218750000,125,-0.4693627978,,,
31.4375000000,125,-0.5977307953,,,
31.4531250000,125,-2.5221079622,,,
31.4687500000,125,-3.4766576871,,,
31.4843750000,125,-1.4389056667,33024,31.4990234375,0.0000000000
31.5000000000,126,-2.3154763087,,,
31.5156250000,126,-2.8881370384,,,
31.5312500000,126,-3.1194283722,,,
31.5468750000,126,-0.3264325766,,,
31.5625000000,126,0.5646910400,,,
31.5781250000,126,-2.6727882622,,,
31.5937500000,126,1.4411303151,,,
31.6093750000,126,4.6985133098,,,
31.6250000000,126,0.8411790683,,,
31.6406250000,126,-1.3879394417,,,
31.6562500000,126,1.2563003088,,,
31.6718750000,126,3.8963236974,,,
31.6875000000,126,-2.4463278280,,,
31.7031250000,126,-6.5053359681,,,
31.7187500000,126,-2.6580456407,,,
31.7343750000,126,-2.7983179243,,,
31.7500000000,127,-2.0808835200,,,
31.7656250000,127,-0.3489085432,,,
31.7812500000,127,0.8008705490,,,
31.7968750000,127,2.2281976664,33024,31.7998046875,0.0000000000
31.8125000000,127,-2.0094550744,,,
31.8281250000,127,-3.3474220179,,,
31.8437500000,127,0.6155773598,,,
31.8593750000,127,4.1265401192,,,
31.8750000000,127,3.4302997611,,,
31.8906250000,127,-2.6915052170,,,
31.9062500000,127,-2.0795791819,,,
31.9218750000,127,1.5955446069,,,
31.9375000000,127,0.5649828074,,,
31.9531250000,127,1.1717024380,,,
31.9687500000,127,2.2113130379,,,
31.9843750000,127,4.2062873748,,,
32.0000000000,128,3.6461918559,,,
32.0156250000,128,0.4018662392,,,
32.0312500000,128,1.4528166574,,,
32.0468750000,128,0.6883501011,,,
32.0625000000,128,0.1355767786,,,
32.0781250000,128,0.6067382514,,,
32.0937500000,128,-0.9401561339,33024,32.0996093750,0.0000000000
32.1093750000,128,1.7810507116,,,
32.1250000000,128,1.8148043788,,,
32.1406250000,128,-1.6493087979,,,
32.1562500000,128,-1.6094644407,,,
32.1718750000,128,-0.8233480294,,,
32.1875000000,128,-1.0890555126,,,
32.2031250000,128,-3.6128016669,,,
32.2187500000,128,-1.4883155990,,,
32.2343750000,128,3.1618336028,,,
32.2500000000,129,2.4432865504,,,
32.2656250000,129,2.6876426331,,,
32.2812500000,129,-0.0967808333,,,
32.2968750000,129,-2.8045602931,,,
32.3125000000,129,1.1745503207,,,
32.3281250000,129,0.5751576924,,,
32.3437500000,129,-2.0541713391,,,
32.3593750000,129,-0.8352970733,,,
32.3750000000,129,2.5325611586,,,
32.3906250000,129,3.0757641881,33024,32.3994140625,0.0000000000
32.4062500000,129,-3.2133939864,,,
32.4218750000,129,-3.7669110699,,,
32.4375000000,129,0.1221288379,,,
32.4531250000,129,-0.0699854480,,,
32.4687500000,129,-0.0787250464,,,
32.4843750000,129,-0.8535046450,,,
32.5000000000,130,0.6398993385,,,
32.5156250000,130,0.7826812056,,,
32.5312500000,130,-3.0947699791,,,
32.5468750000,130,-1.9503661265,,,
32.5625000000,130,0.5762598724,,,
32.5781250000,130,2.8403285075,,,
32.5937500000,130,1.9894784941,,,
32.6093750000,130,-3.1320358765,,,
32.6250000000,130,-2.4445077066,,,
32.6406250000,130,-0.8023087531,,,
32.6562500000,130,-1.3036607909,,,
32.6718750000,130,-1.7027969471,,,
32.6875000000,130,-0.7459931851,33024,32.6992187500,0.0000000000
32.7031250000,130,4.2480464596,,,
32.7187500000,130,2.8750640829,,,
32.7343750000,130,-1.1352696073,,,
32.7500000000,131,-0.7126312110,,,
32.7656250000,131,-2.1200699577,,,
32.7812500000,131,-1.2450699499,,,
32.7968750000,131,-1.1242138874,,,
32.8125000000,131,-2.1130875643,,,
32.8281250000,131,0.0877400512,,,
32.8437500000,131,-0.1768536734,,,
32.8593750000,131,1.0331987207,,,
32.8750000000,131,1.4764562818,,,
32.8906250000,131,-0.7974787639,,,
32.9062500000,131,-0.0405070938,,,
32.9218750000,131,0.0498100013,,,
32.9375000000,131,1.2778051511,,,
32.9531250000,131,1.8069453580,,,
32.9687500000,131,0.1553285344,,,
32.9843750000,131,0.7759841597,33024,32.9990234375,0.0000000000
33.0000000000,132,0.6508373108,,,
33.0156250000,132,2.0836251331,,,
33.0312500000,132,1.1846321420,,,
33.0468750000,132,-2.4827565214,,,
33.0625000000,132,-0.9960812520,,,
33.0781250000,132,-0.0476285763,,,
33.0937500000,132,2.2672388906,,,
33.1093750000,132,3.3666664309,,,
33.1250000000,132,-0.8493836113,,,
33.1406250000,132,-0.2833557043,,,
33.1562500000,132,-0.1512186217,,,
33.1718750000,132,-1.3843990670,,,
33.1875000000,132,0.3003535817,,,
33.2031250000,132,-0.3633639765,,,
33.2187500000,132,-0.9738694603,,,
33.2343750000,132,-1.0308501433,,,
33.2500000000,133,1.0589910856,,,
33.2656250000,133,1.8952032836,,,
33.2812500000,133,-1.1344142033,,,
33.2968750000,133,1.0517390693,33024,33.2998046875,0.0000000000
33.3125000000,133,0.8071559216,,,
33.3281250000,133,-2.2571631623,,,
33.3437500000,133,-0.0798625827,,,
33.3593750000,133,0.1893499278,,,
33.3750000000,133,1.3715827226,,,
33.3906250000,133,3.1567177316,,,
33.4062500000,133,2.2607885736,,,
33.4218750000,133,1.6584777737,,,
33.4375000000,133,-0.1046368821,,,
33.4531250000,133,1.0012771780,,,
33.4687500000,133,0.6195546437,,,
33.4843750000,133,-2.4432460384,,,
33.5000000000,134,-0.9040688721,,,
33.5156250000,134,-1.2834639521,,,
33.5312500000,134,-2.0398987897,,,
33.5468750000,134,-0.1080675590,,,
33.5625000000,134,1.8302338622,,,
33.5781250000,134,3.7879662614,,,
33.5937500000,134,0.2759857737,33024,33.5996093750,0.0000000000
33.6093750000,134,-2.0771386473,,,
33.6250000000,134,-0.4240907969,,,
33.6406250000,134,-0.4527535607,,,
33.6562500000,134,-0.2086794221,,,
33.6718750000,134,-3.6580002804,,,
33.6875000000,134,-5.2176464422,,,
33.7031250000,134,-1.8345556880,,,
33.7187500000,134,0.4790390444,,,
33.7343750000,134,2.9230009328,,,
33.7500000000,135,-0.0234099846,,,
33.7656250000,135,-3.0732929559,,,
33.7812500000,135,-1.3340374436,,,
33.7968750000,135,-1.9659785631,,,
33.8125000000,135,-1.0417522589,,,
33.8281250000,135,-0.3161077813,,,
33.8437500000,135,0.5981957631,,,
33.8593750000,135,2.2563957375,,,
33.8750000000,135,-0.8300746139,,,
33.8906250000,135,-0.0846042703,33024,33.8994140625,0.0000000000
33.9062500000,135,1.0442525092,,,
33.9218750000,135,-1.7456410668,,,
33.9375000000,135,-1.4403627795,,,
33.9531250000,135,-0.6027553337,,,
33.9687500000,135,2.6204874973,,,
33.9843750000,135,3.4774827981,,,
34.0000000000,136,0.4443820991,,,
34.0156250000,136,1.7626826377,,,
34.0312500000,136,1.7668248334,,,
34.0468750000,136,1.2693479035,,,
34.0625000000,136,1.6513636081,,,
34.0781250000,136,0.9401278676,,,
34.0937500000,136,1.6659417856,,,
34.1093750000,136,-0.6880132232,,,
34.1250000000,136,-1.0342990099,,,
34.1406250000,136,0.3634218824,,,
34.1562500000,136,-3.0565654924,,,
34.1718750000,136,-4.0350860646,,,
34.1875000000,136,-1.8583047237,33024,34.1992187500,0.0000000000
34.2031250000,136,1.8076590146,,,
34.2187500000,136,2.4273433277,,,
34.2343750000,136,-1.2730345376,,,
34.2500000000,137,-0.3039260722,,,
34.2656250000,137,0.7392752920,,,
34.2812500000,137,1.6887899541,,,
34.2968750000,137,2.0888262526,,,
34.3125000000,137,-1.3274255294,,,
34.3281250000,137,2.7912337640,,,
34.3437500000,137,4.8995585267,,,
34.3593750000,137,-0.9510433756,,,
34.3750000000,137,-0.8926238589,,,
34.3906250000,137,0.1242581568,,,
34.4062500000,137,-2.4010810120,,,
34.4218750000,137,-4.6448994061,,,
34.4375000000,137,-2.7184598689,,,
34.4531250000,137,0.5404390375,,,
34.4687500000,137,-0.3706607467,,,
34.4843750000,137,1.1780530028,33024,34.4990234375,0.0000000000
34.5000000000,138,0.9454760862,,,
34.5156250000,138,-1.6314499866,,,
34.5312500000,138,0.3003734272,,,
34.5468750000,138,0.5011548483,,,
34.5625000000,138,1.6662598368,,,
34.5781250000,138,1.3406650540,,,
34.5937500000,138,-1.8374763928,,,
34.6093750000,138,-0.1891066058,,,
34.6250000000,138,-1.9516922886,,,
34.6406250000,138,-3.1752312333,,,
34.6562500000,138,0.9864204744,,,
34.6718750000,138,3.0060272520,,,
34.6875000000,138,4.5430599298,,,
34.7031250000,138,2.9217290925,,,
34.7187500000,138,1.5365924665,,,
34.7343750000,138,1.6236867657,,,
34.7500000000,139,-2.0620300768,,,
34.7656250000,139,-2.9355734347,,,
34.7812500000,139,-1.5176116832,,,
34.7968750000,139,1.1175067622,33024,34.7998046875,0.0000000000
34.8125000000,139,1.3642766239,,,
34.8281250000,139,-4.0204655991,,,
34.8437500000,139,-3.3074819851,,,
34.8593750000,139,-0.2587737570,,,
34.8750000000,139,-0.4180538068,,,
34.8906250000,139,-0.2805870476,,,
34.9062500000,139,-1.6339458227,,,
34.9218750000,139,0.5944737845,,,
34.9375000000,139,1.8899689155,,,
34.9531250000,139,-1.0454758422,,,
34.9687500000,139,-0.8979080716,,,
34.9843750000,139,1.2966644806,,,
35.0000000000,140,3.6801175434,,,
35.0156250000,140,-0.5718216576,,,
35.0312500000,140,-5.1419646021,,,
35.0468750000,140,-1.0400854172,,,
35.0625000000,140,-0.0275303192,,,
35.0781250000,140,0.2775555411,,,
35.0937500000,140,0.7079377263,33024,35.0996093750,0.0000000000
35.1093750000,140,-1.9863198979,,,
35.1250000000,140,0.9149079345,,,
35.1406250000,140,2.7586729618,,,
35.1562500000,140,0.9190779833,,,
35.1718750000,140,0.7803421837,,,
35.1875000000,140,2.2570165827,,,
35.2031250000,140,4.0545281651,,,
35.2187500000,140,0.9803601978,,,
35.2343750000,140,-0.5828136989,,,
35.2500000000,141,-0.2736517210,,,
35.2656250000,141,-3.4140585675,,,
35.2812500000,141,-2.5558871377,,,
35.2968750000,141,-1.1738869482,,,
35.3125000000,141,0.6337248614,,,
35.3281250000,141,3.2484824207,,,
35.3437500000,141,0.7849312243,,,
35.3593750000,141,1.0929888264,,,
35.3750000000,141,1.0862539558,,,
35.3906250000,141,-0.3692196493,33024,35.3994140625,0.0000000000
35.4062500000,141,1.9221262251,,,
35.4218750000,141,0.9160019620,,,
35.4375000000,141,-0.5562337036,,,
35.4531250000,141,-1.6269537527,,,
35.4687500000,141,-2.0198674188,,,
35.4843750000,141,-0.5962211740,,,
35.5000000000,142,-2.4452692391,,,
35.5156250000,142,-0.1125393589,,,
35.5312500000,142,2.4041387264,,,
35.5468750000,142,-0.8942317612,,,
35.5625000000,142,-1.7585218190,,,
35.5781250000,142,-2.1382119389,,,
35.5937500000,142,-1.3903568655,,,
35.6093750000,142,-1.2876345010,,,
35.6250000000,142,-1.8140248364,,,
35.6406250000,142,1.5779886676,,,
35.6562500000,142,-0.2746581436,,,
35.6718750000,142,-1.8521340672,,,
35.6875000000,142,2.5926947121,33024,35.6992187500,0.0000000000
35.7031250000,142,4.6853134605,,,
35.7187500000,142,4.1167001915,,,
35.7343750000,142,-0.6947802723,,,
35.7500000000,143,-3.5040748354,,,
35.7656250000,143,-0.5965930354,,,
35.7812500000,143,2.4822217345,,,
35.7968750000,143,3.7710422471,,,
35.8125000000,143,-1.3034529431,,,
35.8281250000,143,-2.7921608656,,,
35.8437500000,143,1.8072182012,,,
35.8593750000,143,0.2962224487,,,
35.8750000000,143,-1.7505932503,,,
35.8906250000,143,-2.6726052351,,,
35.9062500000,143,-1.8652566422,,,
35.9218750000,143,0.9372983947,,,
35.9375000000,143,-1.1736440194,,,
35.9531250000,143,-1.4704869869,,,
35.9687500000,143,-0.4997980123,,,
35.9843750000,143,0.2305212148,33024,35.9990234375,0.0000000000
36.0000000000,144,2.8885282869,,,
36.0156250000,144,0.5059888622,,,
36.0312500000,144,-0.2919812383,,,
36.0468750000,144,1.6343882123,,,
36.0625000000,144,1.0336754805,,,
36.0781250000,144,0.7783354698,,,
36.0937500000,144,-1.0079723869,,,
36.1093750000,144,-0.6278661883,,,
36.1250000000,144,-0.2848881551,,,
36.1406250000,144,-1.2127557294,,,
36.1562500000,144,1.9921093696,,,
36.1718750000,144,1.7908410870,,,
36.1875000000,144,0.0718176073,,,
36.2031250000,144,-0.6400588910,,,
36.2187500000,144,-1.7157408760,,,
36.2343750000,144,1.2093368670,,,
36.2500000000,145,0.3857125396,,,
36.2656250000,145,-1.5856553005,,,
36.2812500000,145,-0.4355789833,,,
36.2968750000,145,-1.2623975231,33024,36.2998046875,0.0000000000
36.3125000000,145,-0.0741699736,,,
36.3281250000,145,-0.4799871313,,,
36.3437500000,145,-0.7045346518,,,
36.3593750000,145,1.4474115191,,,
36.3750000000,145,-1.1136529689,,,
36.3906250000,145,-2.1275840102,,,
36.4062500000,145,-1.2460668413,,,
36.4218750000,145,-0.0612965561,,,
36.4375000000,145,1.5974245604,,,
36.4531250000,145,-0.8283592009,,,
36.4687500000,145,-0.0177460041,,,
36.4843750000,145,3.0902980339,,,
36.5000000000,146,3.9611529603,,,
36.5156250000,146,2.3463703754,,,
36.5312500000,146,-1.9898097807,,,
36.5468750000,146,0.7981161315,,,
36.5625000000,146,2.6500197057,,,
36.5781250000,146,-2.3727000381,,,
36.5937500000,146,-2.4401473785,33024,36.5996093750,0.0000000000
36.6093750000,146,0.3545610913,,,
36.6250000000,146,4.4346959247,,,
36.6406250000,146,3.6995926598,,,
36.6562500000,146,-2.6272279828,,,
36.6718750000,146,-1.4979005981,,,
36.6875000000,146,0.6679347876,,,
36.7031250000,146,-0.6165402011,,,
36.7187500000,146,-2.3435694299,,,
36.7343750000,146,-3.6711886804,,,
36.7500000000,147,-0.7654431338,,,
36.7656250000,147,-0.0462215800,,,
36.7812500000,147,-0.9489505290,,,
36.7968750000,147,-0.4746451895,,,
36.8125000000,147,0.8983920667,,,
36.8281250000,147,5.1430190419,,,
36.8437500000,147,3.0601905893,,,
36.8593750000,147,-0.1895367610,,,
36.8750000000,147,0.6537964316,,,
36.8906250000,147,-1.9630424743,33024,36.8994140625,0.0000000000
36.9062500000,147,-1.1327421103,,,
36.9218750000,147,0.2193808087,,,
36.9375000000,147,-2.3552922185,,,
36.9531250000,147,-2.8264860639,,,
36.9687500000,147,-1.2803695458,,,
36.9843750000,147,1.5430486057,,,
37.0000000000,148,-0.2371927121,,,
37.0156250000,148,-1.1551509869,,,
37.0312500000,148,3.0073802533,,,
37.0468750000,148,0.8272188332,,,
37.0625000000,148,-1.3466171288,,,
37.0781250000,148,-0.7927841800,,,
37.0937500000,148,-0.8122139941,,,
37.1093750000,148,3.2044506105,,,
37.1250000000,148,4.0569592701,,,
37.1406250000,148,2.1859470048,,,
37.1562500000,148,0.4974953318,,,
37.1718750000,148,-1.4964597169,,,
37.1875000000,148,-1.1502269748,33024,37.1992187500,0.0000000000
37.2031250000,148,-3.1428788632,,,
37.2187500000,148,-2.9857193789,,,
37.2343750000,148,-1.7851380028,,,
37.2500000000,149,-4.2214225051,,,
37.2656250000,149,-2.3244740685,,,
37.2812500000,149,0.5908518823,,,
37.2968750000,149,1.7927386349,,,
37.3125000000,149,1.3092801863,,,
37.3281250000,149,0.3388495177,,,
37.3437500000,149,3.3224371469,,,
37.3593750000,149,1.8731492146,,,
37.3750000000,149,-0.1051049817,,,
37.3906250000,149,2.6908419328,,,
37.4062500000,149,1.1336503606,,,
37.4218750000,149,-1.4503931232,,,
37.4375000000,149,-2.1061914102,,,
37.4531250000,149,-1.4990618346,,,
37.4687500000,149,-1.0853284702,,,
37.4843750000,149,-2.6870060402,33024,37.4990234375,0.0000000000
37.5000000000,150,-2.0024717876,,,
37.5156250000,150,-1.7940290090,,,
37.5312500000,150,0.1270892102,,,
37.5468750000,150,3.4725741746,,,
37.5625000000,150,2.2170457413,,,
37.5781250000,150,2.9313879627,,,
37.5937500000,150,1.9592686618,,,
37.6093750000,150,-0.4029344834,,,
37.6250000000,150,1.2668644087,,,
37.6406250000,150,-2.2845353492,,,
37.6562500000,150,-3.9755676820,,,
37.6718750000,150,1.1210822817,,,
37.6875000000,150,3.4233879671,,,
37.7031250000,150,1.3094529645,,,
37.7187500000,150,-2.5457474716,,,
37.7343750000,150,0.3552855073,,,
37.7500000000,151,3.9864200496,,,
37.7656250000,151,0.5191729799,,,
37.7812500000,151,0.0808199620,,,
37.7968750000,151,1.1737147891,33024,37.7998046875,0.0000000000
37.8125000000,151,1.0539285141,,,
37.8281250000,151,0.2116154040,,,
37.8437500000,151,-1.7189121579,,,
37.8593750000,151,-0.4180707404,,,
37.8750000000,151,-1.3112146091,,,
37.8906250000,151,-1.9552566483,,,
37.9062500000,151,1.7398678505,,,
37.9218750000,151,2.7559546996,,,
37.9375000000,151,1.3300328287,,,
37.9531250000,151,-2.5249686926,,,
37.9687500000,151,-3.1977836881,,,
37.9843750000,151,-0.3964726404,,,
38.0000000000,152,-2.5173799265,,,
38.0156250000,152,-1.9248697672,,,
38.0312500000,152,-1.3491288880,,,
38.0468750000,152,-3.5905711280,,,
38.0625000000,152,0.2961723185,,,
38.0781250000,152,1.5834263590,,,
38.0937500000,152,-1.8661399429,33024,38.0996093750,0.0000000000
38.1093750000,152,-2.8035398529,,,
38.1250000000,152,1.5747392821,,,
38.1406250000,152,6.3883065074,,,
38.1562500000,152,0.8223157065,,,
38.1718750000,152,-2.4480774150,,,
38.1875000000,152,2.9684268401,,,
38.2031250000,152,4.4701525598,,,
38.2187500000,152,2.8424564655,,,
38.2343750000,152,-0.9070130838,,,
38.2500000000,153,-2.6336127034,,,
38.2656250000,153,-1.0015325138,,,
38.2812500000,153,-1.1190675293,,,
38.2968750000,153,-0.6204196371,,,
38.3125000000,153,-0.2585630774,,,
38.3281250000,153,2.1027317883,,,
38.3437500000,153,1.8916169662,,,
38.3593750000,153,-3.0378069575,,,
38.3750000000,153,-0.2904177185,,,
38.3906250000,153,1.7425746793,33024,38.3994140625,0.0000000000
38.4062500000,153,-1.3310814654,,,
38.4218750000,153,-1.8868981043,,,
38.4375000000,153,-3.4271215698,,,
38.4531250000,153,-1.1285188757,,,
38.4687500000,153,2.0365086652,,,
38.4843750000,153,0.2804865586,,,
38.5000000000,154,-1.1015875772,,,
38.5156250000,154,-0.7056351037,,,
38.5312500000,154,1.2382871974,,,
38.5468750000,154,-0.7900788506,,,
38.5625000000,154,-0.8520288576,,,
38.5781250000,154,3.8936645692,,,
38.5937500000,154,0.7815033005,,,
38.6093750000,154,-1.1681806357,,,
38.6250000000,154,2.1189014831,,,
38.6406250000,154,1.9448610444,,,
38.6562500000,154,-0.1313316358,,,
38.6718750000,154,-3.7878582064,,,
38.6875000000,154,-3.6098670277,33024,38.6992187500,0.0000000000
38.7031250000,154,-1.3163161170,,,
38.7187500000,154,-0.2848923026,,,
38.7343750000,154,3.1819792938,,,
38.7500000000,155,2.2841253875,,,
38.7656250000,155,1.0190998481,,,
38.7812500000,155,3.6097511900,,,
38.7968750000,155,4.2446699296,,,
38.8125000000,155,3.4734926172,,,
38.8281250000,155,0.3742620427,,,
38.8437500000,155,0.4624126678,,,
38.8593750000,155,1.2007285615,,,
38.8750000000,155,-2.3276716119,,,
38.8906250000,155,-1.0317282938,,,
38.9062500000,155,0.5680610005,,,
38.9218750000,155,0.1700648953,,,
38.9375000000,155,-1.1708763751,,,
38.9531250000,155,-4.9325354846,,,
38.9687500000,155,-0.8648144616,,,
38.9843750000,155,2.7987749880,33024,38.9990234375,0.0000000000
39.0000000000,156,-1.2993620250,,,
39.0156250000,156,-1.9836173060,,,
39.0312500000,156,0.3495986199,,,
39.0468750000,156,1.1123601459,,,
39.0625000000,156,-2.3621550773,,,
39.0781250000,156,-3.1488667446,,,
39.0937500000,156,1.7163044584,,,
39.1093750000,156,0.1522538000,,,
39.1250000000,156,-3.4284937655,,,
39.1406250000,156,-2.6921950642,,,
39.1562500000,156,1.5263502550,,,
39.1718750000,156,5.1834114360,,,
39.1875000000,156,-0.0496230907,,,
39.2031250000,156,-2.1215069802,,,
39.2187500000,156,2.8328034475,,,
39.2343750000,156,3.3933743687,,,
39.2500000000,157,-0.6484054105,,,
39.2656250000,157,-6.8175722663,,,
39.2812500000,157,-5.6997295644,,,
39.2968750000,157,-0.6844925007,33024,39.2998046875,0.0000000000
39.3125000000,157,-0.6402374128,,,
39.3281250000,157,0.0116954613,,,
39.3437500000,157,-1.8900549516,,,
39.3593750000,157,-1.8559358593,,,
39.3750000000,157,2.3506900913,,,
39.3906250000,157,1.6941566795,,,
39.4062500000,157,0.5304255472,,,
39.4218750000,157,-0.1131452643,,,
39.4375000000,157,1.2128823253,,,
39.4531250000,157,3.8819766598,,,
39.4687500000,157,3.0187322388,,,
39.4843750000,157,3.4957050523,,,
39.5000000000,158,2.0674875121,,,
39.5156250000,158,0.0468986517,,,
39.5312500000,158,0.7140217062,,,
39.5468750000,158,-1.9130646344,,,
39.5625000000,158,-2.1879000772,,,
39.5781250000,158,-0.3808096093,,,
39.5937500000,158,-0.0886345884,33024,39.5996093750,0.0000000000
39.6093750000,158,0.3841183655,,,
39.6250000000,158,-0.2394153743,,,
39.6406250000,158,1.8826941076,,,
39.6562500000,158,1.4546906291,,,
39.6718750000,158,-1.0227646658,,,
39.6875000000,158,0.9261225240,,,
39.7031250000,158,-0.7472678152,,,
39.7187500000,158,-1.3519265567,,,
39.7343750000,158,0.3437847229,,,
39.7500000000,159,-1.3147842447,,,
39.7656250000,159,-0.3691184885,,,
39.7812500000,159,-0.8071163361,,,
39.7968750000,159,-1.1490152928,,,
39.8125000000,159,1.2681662538,,,
39.8281250000,159,1.9300226959,,,
39.8437500000,159,2.5564849213,,,
39.8593750000,159,-0.7764324152,,,
39.8750000000,159,-3.1939537233,,,
39.8906250000,159,-1.3044669223,33024,39.8994140625,0.0000000000
39.9062500000,159,-1.5368851946,,,
39.9218750000,159,-0.3523695613,,,
39.9375000000,159,1.6303098047,,,
39.9531250000,159,3.2267291119,,,
39.9687500000,159,0.5887298658,,,
39.9843750000,159,-5.0741312176,,,
40.0000000000,160,-0.5937569701,,,
40.0156250000,160,3.9101033691,,,
40.0312500000,160,1.2327469679,,,
40.0468750000,160,-0.3390533359,,,
40.0625000000,160,-1.6847975845,,,
40.0781250000,160,-0.2674059982,,,
40.0937500000,160,-0.3047120208,,,
40.1093750000,160,-2.2722122564,,,
40.1250000000,160,0.8459754444,,,
40.1406250000,160,2.1460213367,,,
40.1562500000,160,0.9239034634,,,
40.1718750000,160,-0.6771210791,,,
40.1875000000,160,-0.9228289488,33024,40.1992187500,0.0000000000
40.2031250000,160,0.7044376565,,,
40.2187500000,160,-1.7845127499,,,
40.2343750000,160,-0.1831154438,,,
40.2500000000,161,2.4809742193,,,
40.2656250000,161,-1.5362667878,,,
40.2812500000,161,-2.2517979091,,,
40.2968750000,161,-1.7475025032,,,
40.3125000000,161,-1.5773340067,,,
40.3281250000,161,-1.0318374798,,,
40.3437500000,161,-1.2682100380,,,
40.3593750000,161,0.6052574330,,,
40.3750000000,161,-1.1049784003,,,
40.3906250000,161,-0.0766039083,,,
40.4062500000,161,5.2010693058,,,
40.4218750000,161,3.9965186925,,,
40.4375000000,161,1.6852942388,,,
40.4531250000,161,0.6740896724,,,
40.4687500000,161,1.2512794067,,,
40.4843750000,161,1.4749732484,33024,40.4990234375,0.0000000000
40.5000000000,162,-1.6675728820,,,
40.5156250000,162,-0.3716569839,,,
40.5312500000,162,0.7228573415,,,
40.5468750000,162,0.2012714583,,,
40.5625000000,162,1.5874282524,,,
40.5781250000,162,0.1607897899,,,
40.5937500000,162,1.4337288362,,,
40.6093750000,162,1.8640020505,,,
40.6250000000,162,-1.3148270283,,,
40.6406250000,162,-0.9415325894,,,
40.6562500000,162,0.0217342848,,,
40.6718750000,162,1.7145551326,,,
40.6875000000,162,0.4695634387,,,
40.7031250000,162,-2.8416190788,,,
40.7187500000,162,-1.7911319073,,,
40.7343750000,162,-1.4897685829,,,
40.7500000000,163,0.1473686376,,,
40.7656250000,163,-0.6533411994,,,
40.7812500000,163,-4.4379692455,,,
40.7968750000,163,-0.2687656195,33024,40.7998046875,0.0000000000
40.8125000000,163,1.8915590967,,,
40.8281250000,163,-1.5146568225,,,
40.8437500000,163,-2.2621663747,,,
40.8593750000,163,-0.3052844034,,,
40.8750000000,163,1.7954736625,,,
40.8906250000,163,-1.5986345511,,,
40.9062500000,163,-3.2234292040,,,
40.9218750000,163,-0.9832356591,,,
40.9375000000,163,-0.3729179726,,,
40.9531250000,163,2.5512301400,,,
40.9687500000,163,1.6983354898,,,
40.9843750000,163,-0.1332487091,,,
41.0000000000,164,2.4756848028,,,
41.0156250000,164,2.8296461131,,,
41.0312500000,164,2.3360940693,,,
41.0468750000,164,-0.3593074228,,,
41.0625000000,164,-0.7562444614,,,
41.0781250000,164,1.3492046124,,,
41.0937500000,164,-3.9637346459,33024,41.0996093750,0.0000000000
41.1093750000,164,-6.0082754578,,,
41.1250000000,164,-2.0561351111,,,
41.1406250000,164,-0.9497493372,,,
41.1562500000,164,-2.1140439238,,,
41.1718750000,164,-2.8496145915,,,
41.1875000000,164,1.9359037099,,,
41.2031250000,164,4.3821103024,,,
41.2187500000,164,2.6854844701,,,
41.2343750000,164,3.6713097612,,,
41.2500000000,165,1.7542722354,,,
41.2656250000,165,1.6847489416,,,
41.2812500000,165,1.5261767470,,,
41.2968750000,165,-2.8202449095,,,
41.3125000000,165,-1.8723224129,,,
41.3281250000,165,-0.4254263780,,,
41.3437500000,165,-1.1928300248,,,
41.3593750000,165,-2.9477661768,,,
41.3750000000,165,-2.8506287256,,,
41.3906250000,165,3.5988881577,33024,41.3994140625,0.0000000000
41.4062500000,165,4.0427642122,,,
41.4218750000,165,0.4816939186,,,
41.4375000000,165,3.5739042753,,,
41.4531250000,165,7.6795469708,,,
41.4687500000,165,6.1116596041,,,
41.4843750000,165,-0.9729329788,,,
41.5000000000,166,-0.3157164524,,,
41.5156250000,166,3.7379727997,,,
41.5312500000,166,-3.3798366498,,,
41.5468750000,166,-7.3063083957,,,
41.5625000000,166,-3.6194370170,,,
41.5781250000,166,-2.0214516995,,,
41.5937500000,166,-2.7602302682,,,
41.6093750000,166,-3.0677587553,,,
41.6250000000,166,1.7303173232,,,
41.6406250000,166,5.0683684931,,,
41.6562500000,166,4.3453955755,,,
41.6718750000,166,3.2117344200,,,
41.6875000000,166,1.1287485966,33024,41.6992187500,0.0000000000
41.7031250000,166,2.7506446594,,,
41.7187500000,166,0.9089781374,,,
41.7343750000,166,-3.0726301318,,,
41.7500000000,167,-1.2338486683,,,
41.7656250000,167,-5.2024911030,,,
41.7812500000,167,-9.2097493704,,,
41.7968750000,167,-5.8832664041,,,
41.8125000000,167,-3.2201270273,,,
41.8281250000,167,-1.2895712473,,,
41.8437500000,167,-1.9144243263,,,
41.8593750000,167,-1.2356325662,,,
41.8750000000,167,1.8393287237,,,
41.8906250000,167,4.3934036884,,,
41.9062500000,167,7.5375968843,,,
41.9218750000,167,3.4112602850,,,
41.9375000000,167,-0.1608074669,,,
41.9531250000,167,2.8101398565,,,
41.9687500000,167,1.8153048448,,,
41.9843750000,167,-0.5159246355,33024,41.9990234375,0.0000000000
42.0000000000,168,-4.1626450208,,,
42.0156250000,168,-6.5945033815,,,
42.0312500000,168,-3.8665812465,,,
42.0468750000,168,-1.7922449340,,,
42.0625000000,168,0.1489273603,,,
42.0781250000,168,-0.7714397918,,,
42.0937500000,168,-0.9119150534,,,
42.1093750000,168,2.2457417903,,,
42.1250000000,168,2.7918585798,,,
42.1406250000,168,5.9270650834,,,
42.1562500000,168,6.6040731485,,,
42.1718750000,168,4.1833219430,,,
42.1875000000,168,4.7426367477,,,
42.2031250000,168,0.7122791016,,,
42.2187500000,168,-3.7861789247,,,
42.2343750000,168,-5.4676946319,,,
42.2500000000,169,-5.2520083458,,,
42.2656250000,169,-2.5958179091,,,
42.2812500000,169,-3.3792989344,,,
42.2968750000,169,-1.6275050359,33024,42.2998046875,0.0000000000
42.3125000000,169,0.7416623867,,,
42.3281250000,169,-0.3785901222,,,
42.3437500000,169,2.8481566571,,,
42.3593750000,169,4.7584129211,,,
42.3750000000,169,3.8207958214,,,
42.3906250000,169,1.7746369672,,,
42.4062500000,169,-0.7366389340,,,
42.4218750000,169,1.6532109952,,,
42.4375000000,169,1.1577672975,,,
42.4531250000,169,-2.6779800093,,,
42.4687500000,169,-5.0821805893,,,
42.4843750000,169,-4.7280235195,,,
42.5000000000,170,-0.0591593751,,,
42.5156250000,170,-1.8421010681,,,
42.5312500000,170,-4.4804286852,,,
42.5468750000,170,0.0207383347,,,
42.5625000000,170,2.1323893414,,,
42.5781250000,170,3.3384771577,,,
42.5937500000,170,2.7479291755,33024,42.5996093750,0.0000000000
42.6093750000,170,2.2913738097,,,
42.6250000000,170,5.0488460160,,,
42.6406250000,170,2.7894084779,,,
42.6562500000,170,-0.7188921722,,,
42.6718750000,170,-1.6590973714,,,
42.6875000000,170,0.1933153117,,,
42.7031250000,170,0.5940579919,,,
42.7187500000,170,-3.9718883821,,,
42.7343750000,170,-1.1033280005,,,
42.7500000000,171,2.9598017309,,,
42.7656250000,171,0.5537428671,,,
42.7812500000,171,0.3193951605,,,
42.7968750000,171,-0.3561221412,,,
42.8125000000,171,0.2227273836,,,
42.8281250000,171,0.6358973858,,,
42.8437500000,171,-0.6943598996,,,
42.8593750000,171,2.9738462422,,,
42.8750000000,171,3.5432842583,,,
42.8906250000,171,-0.2292898528,33024,42.8994140625,0.0000000000
42.9062500000,171,-2.4779956306,,,
42.9218750000,171,-2.9265692934,,,
42.9375000000,171,-0.7720712101,,,
42.9531250000,171,-2.4376321172,,,
42.9687500000,171,-4.3293180911,,,
42.9843750000,171,-1.9434891246,,,
43.0000000000,172,1.4429446910,,,
43.0156250000,172,3.4092200348,,,
43.0312500000,172,-0.6384891871,,,
43.0468750000,172,0.0705108043,,,
43.0625000000,172,3.9498822003,,,
43.0781250000,172,-1.6740410627,,,
43.0937500000,172,-4.2812927302,,,
43.1093750000,172,-2.3214144857,,,
43.1250000000,172,-1.2110626990,,,
43.1406250000,172,0.1959529612,,,
43.1562500000,172,-2.0018250773,,,
43.1718750000,172,-1.1483885051,,,
43.1875000000,172,1.2130497941,33024,43.1992187500,0.0000000000
43.2031250000,172,0.5495006005,,,
43.2187500000,172,0.3148165279,,,
43.2343750000,172,-0.8339111077,,,
43.2500000000,173,0.6395926009,,,
43.2656250000,173,1.3727710165,,,
43.2812500000,173,2.3308825155,,,
43.2968750000,173,6.4078967074,,,
43.3125000000,173,4.1792752273,,,
43.3281250000,173,1.6516766950,,,
43.3437500000,173,0.2447566576,,,
43.3593750000,173,-3.3461499374,,,
43.3750000000,173,-1.8886146227,,,
43.3906250000,173,-0.5130556303,,,
43.4062500000,173,-0.1563947345,,,
43.4218750000,173,-0.7773200433,,,
43.4375000000,173,-4.0561288344,,,
43.4531250000,173,-2.6889503085,,,
43.4687500000,173,-0.4862863949,,,
43.4843750000,173,1.1838841759,33024,43.4990234375,0.0000000000
43.5000000000,174,2.5424751054,,,
43.5156250000,174,1.9028936491,,,
43.5312500000,174,3.2885358512,,,
43.5468750000,174,1.6560906979,,,
43.5625000000,174,0.7906936546,,,
43.5781250000,174,0.6995539086,,,
43.5937500000,174,-4.8688953950,,,
43.6093750000,174,-4.8339255362,,,
43.6250000000,174,-2.4824801134,,,
43.6406250000,174,-2.1470334409,,,
43.6562500000,174,1.6230591474,,,
43.6718750000,174,2.8174280766,,,
43.6875000000,174,1.4383354022,,,
43.7031250000,174,-0.8321751761,,,
43.7187500000,174,-0.4492794193,,,
43.7343750000,174,2.5036261521,,,
43.7500000000,175,0.3882728442,,,
43.7656250000,175,-0.1419136032,,,
43.7812500000,175,0.1210222295,,,
43.7968750000,175,-0.2698190794,33024,43.7998046875,0.0000000000
43.8125000000,175,2.4070781987,,,
43.8281250000,175,-0.2943721860,,,
43.8437500000,175,-3.0068707895,,,
43.8593750000,175,-2.0270574229,,,
43.8750000000,175,-1.5574334848,,,
43.8906250000,175,-0.2202386491,,,
43.9062500000,175,-1.3199094841,,,
43.9218750000,175,1.4392052670,,,
43.9375000000,175,5.4595975772,,,
43.9531250000,175,2.7465012521,,,
43.9687500000,175,0.8120805949,,,
43.9843750000,175,-1.4128677529,,,
44.0000000000,176,-2.4221592627,,,
44.0156250000,176,-0.0431984900,,,
44.0312500000,176,0.3740006555,,,
44.0468750000,176,0.4497076877,,,
44.0625000000,176,-0.4957891471,,,
44.0781250000,176,-0.1701504651,,,
44.0937500000,176,-1.3869369817,33024,44.0996093750,0.0000000000
44.1093750000,176,-4.6097468478,,,
44.1250000000,176,-0.0287200676,,,
44.1406250000,176,1.6513198613,,,
44.1562500000,176,-1.2889395315,,,
44.1718750000,176,0.9717274897,,,
44.1875000000,176,2.9562007899,,,
44.2031250000,176,4.0048871584,,,
44.2187500000,176,0.5985955896,,,
44.2343750000,176,-3.5181475456,,,
44.2500000000,177,-0.5497971918,,,
44.2656250000,177,0.6939252299,,,
44.2812500000,177,0.2636278570,,,
44.2968750000,177,-0.1178566482,,,
44.3125000000,177,-0.3053249851,,,
44.3281250000,177,0.7211886047,,,
44.3437500000,177,-1.5728492245,,,
44.3593750000,177,-0.7877009462,,,
44.3750000000,177,0.4230187715,,,
44.3906250000,177,-1.8772734688,33024,44.3994140625,0.0000000000
44.4062500000,177,-0.5569041924,,,
44.4218750000,177,-0.0637019310,,,
44.4375000000,177,2.0264270369,,,
44.4531250000,177,4.5497138737,,,
44.4687500000,177,1.0374247905,,,
44.4843750000,177,-1.3333254542,,,
44.5000000000,178,-1.7158916251,,,
44.5156250000,178,-0.0034980540,,,
44.5312500000,178,0.3335027215,,,
44.5468750000,178,-1.7866307430,,,
44.5625000000,178,1.1202776220,,,
44.5781250000,178,0.4391408955,,,
44.5937500000,178,-2.5056736928,,,
44.6093750000,178,-1.4615237546,,,
44.6250000000,178,-1.3868612173,,,
44.6406250000,178,1.7514402995,,,
44.6562500000,178,3.0825237905,,,
44.6718750000,178,0.9231399514,,,
44.6875000000,178,1.4355601974,33024,44.6992187500,0.0000000000
44.7031250000,178,1.6964408145,,,
44.7187500000,178,1.6132710862,,,
44.7343750000,178,-1.7199954897,,,
44.7500000000,179,-3.1009430207,,,
44.7656250000,179,0.6478283770,,,
44.7812500000,179,-0.2430908148,,,
44.7968750000,179,-0.9728272738,,,
44.8125000000,179,-0.9399866132,,,
44.8281250000,179,-0.8253828280,,,
44.8437500000,179,1.8164612742,,,
44.8593750000,179,-1.0072202429,,,
44.8750000000,179,-1.1568418006,,,
44.8906250000,179,3.2368637006,,,
44.9062500000,179,2.7613414167,,,
44.9218750000,179,0.4521305584,,,
44.9375000000,179,-2.2268910033,,,
44.9531250000,179,-0.8141746069,,,
44.9687500000,179,0.6316223085,,,
44.9843750000,179,-1.5547507633,33024,44.9990234375,0.0000000000
45.0000000000,180,-0.4866422431,,,
45.0156250000,180,-1.2944124630,,,
45.0312500000,180,-1.3143425654,,,
45.0468750000,180,0.0154865095,,,
45.0625000000,180,-3.1106554485,,,
45.0781250000,180,-2.1059844653,,,
45.0937500000,180,1.5045380139,,,
45.1093750000,180,2.6470183960,,,
45.1250000000,180,1.1812885683,,,
45.1406250000,180,0.3195906810,,,
45.1562500000,180,4.2140030439,,,
45.1718750000,180,1.0717703650,,,
45.1875000000,180,-4.1286071484,,,
45.2031250000,180,-0.6477270736,,,
45.2187500000,180,0.0923721496,,,
45.2343750000,180,-1.8112678101,,,
45.2500000000,181,-2.3372833823,,,
45.2656250000,181,-1.4706717374,,,
45.2812500000,181,0.6256727022,,,
45.2968750000,181,1.1801497918,33024,45.2998046875,0.0000000000
45.3125000000,181,3.2311140057,,,
45.3281250000,181,2.1268894768,,,
45.3437500000,181,0.3749574796,,,
45.3593750000,181,2.8860925910,,,
45.3750000000,181,0.5181044407,,,
45.3906250000,181,-1.3898846105,,,
45.4062500000,181,-0.6218706367,,,
45.4218750000,181,-0.6435941448,,,
45.4375000000,181,0.9158695446,,,
45.4531250000,181,-2.0455737296,,,
45.4687500000,181,-3.1049847328,,,
45.4843750000,181,0.6066882912,,,
45.5000000000,182,0.2698763248,,,
45.5156250000,182,-2.0720403265,,,
45.5312500000,182,-3.1373636089,,,
45.5468750000,182,2.1979815776,,,
45.5625000000,182,5.0316010350,,,
45.5781250000,182,-1.4531923441,,,
45.5937500000,182,-2.5567377237,33024,45.5996093750,0.0000000000
45.6093750000,182,0.0895807265,,,
45.6250000000,182,1.0268410171,,,
45.6406250000,182,-0.1110521990,,,
45.6562500000,182,-3.5347568141,,,
45.6718750000,182,-1.6593301082,,,
45.6875000000,182,-0.5879904000,,,
45.7031250000,182,-0.9500193912,,,
45.7187500000,182,2.2772974262,,,
45.7343750000,182,1.8618921110,,,
45.7500000000,183,0.7469795994,,,
45.7656250000,183,0.7180866934,,,
45.7812500000,183,2.0288814561,,,
45.7968750000,183,4.5693702553,,,
45.8125000000,183,3.0113275627,,,
45.8281250000,183,2.3220098765,,,
45.8437500000,183,0.1613147377,,,
45.8593750000,183,-2.4823536253,,,
45.8750000000,183,0.2531426021,,,
45.8906250000,183,-0.5866221916,33024,45.8994140625,0.0000000000
45.9062500000,183,-2.2658125070,,,
45.9218750000,183,-1.8736859027,,,
45.9375000000,183,-1.3166037157,,,
45.9531250000,183,1.1246400174,,,
45.9687500000,183,-1.0455472480,,,
45.9843750000,183,-1.3416660444,,,
46.0000000000,184,3.1840945686,,,
46.0156250000,184,2.9221255905,,,
46.0312500000,184,0.7695059387,,,
46.0468750000,184,0.0195217113,,,
46.0625000000,184,2.4420446426,,,
46.0781250000,184,2.5862831970,,,
46.0937500000,184,-2.2067856238,,,
46.1093750000,184,-2.7413591900,,,
46.1250000000,184,-1.6451246968,,,
46.1406250000,184,1.3841489163,,,
46.1562500000,184,2.6903492060,,,
46.1718750000,184,-3.3135421364,,,
46.1875000000,184,-4.0267713407,33024,46.1992187500,0.0000000000
46.2031250000,184,-1.9312046760,,,
46.2187500000,184,-2.2869903843,,,
46.2343750000,184,-1.9065889158,,,
46.2500000000,185,-1.1745396048,,,
46.2656250000,185,3.0824701870,,,
46.2812500000,185,2.4130937969,,,
46.2968750000,185,-1.9909024257,,,
46.3125000000,185,-1.9014699904,,,
46.3281250000,185,-2.8020073901,,,
46.3437500000,185,-0.7240269430,,,
46.3593750000,185,0.7431641868,,,
46.3750000000,185,-1.9372636578,,,
46.3906250000,185,-0.2577607309,,,
46.4062500000,185,1.4563414999,,,
46.4218750000,185,1.5159317389,,,
46.4375000000,185,0.5076049231,,,
46.4531250000,185,0.9605388495,,,
46.4687500000,185,4.4998508289,,,
46.4843750000,185,1.4373006630,33024,46.4990234375,0.0000000000
46.5000000000,186,-1.1638322065,,,
46.5156250000,186,1.2251060644,,,
46.5312500000,186,0.4514982736,,,
46.5468750000,186,-0.7652054926,,,
46.5625000000,186,-1.2593290882,,,
46.5781250000,186,1.0413251012,,,
46.5937500000,186,1.8612476808,,,
46.6093750000,186,-1.2943503148,,,
46.6250000000,186,-0.4734721530,,,
46.6406250000,186,-0.8383850982,,,
46.6562500000,186,-0.0937133768,,,
46.6718750000,186,2.2541541139,,,
46.6875000000,186,-1.3504610311,,,
46.7031250000,186,-1.6684320702,,,
46.7187500000,186,-0.0698517295,,,
46.7343750000,186,0.0698560932,,,
46.7500000000,187,2.6008024392,,,
46.7656250000,187,1.8622624857,,,
46.7812500000,187,-1.0214445115,,,
46.7968750000,187,-2.9389653072,33024,46.7998046875,0.0000000000
46.8125000000,187,-1.2738440472,,,
46.8281250000,187,1.1119510934,,,
46.8437500000,187,0.3913741343,,,
46.8593750000,187,2.8188934083,,,
46.8750000000,187,1.2850100502,,,
46.8906250000,187,-2.2477062501,,,
46.9062500000,187,0.9788043973,,,
46.9218750000,187,1.2923375452,,,
46.9375000000,187,1.5999648439,,,
46.9531250000,187,1.7619582380,,,
46.9687500000,187,-1.3356248857,,,
46.9843750000,187,0.3104942778,,,
47.0000000000,188,0.2858340188,,,
47.0156250000,188,-2.1934490007,,,
47.0312500000,188,-2.2405435828,,,
47.0468750000,188,-1.4337171186,,,
47.0625000000,188,-0.1821651958,,,
47.0781250000,188,-2.8124986928,,,
47.0937500000,188,-3.3195819062,33024,47.0996093750,0.0000000000
47.1093750000,188,-0.0906589096,,,
47.1250000000,188,1.9059056932,,,
47.1406250000,188,3.4688207556,,,
47.1562500000,188,-1.1360319375,,,
47.1718750000,188,-2.1624779459,,,
47.1875000000,188,3.8130411520,,,
47.2031250000,188,1.9504411420,,,
47.2187500000,188,-2.2352886374,,,
47.2343750000,188,-3.5915627715,,,
47.2500000000,189,-2.0750977092,,,
47.2656250000,189,0.6974021591,,,
47.2812500000,189,-1.2664682527,,,
47.2968750000,189,-0.8853648846,,,
47.3125000000,189,1.1332481680,,,
47.3281250000,189,0.5727728729,,,
47.3437500000,189,-0.0503312406,,,
47.3593750000,189,-0.0997882995,,,
47.3750000000,189,2.9573369908,,,
47.3906250000,189,1.9384650297,33024,47.3994140625,0.0000000000
47.4062500000,189,-0.3192597842,,,
47.4218750000,189,3.1025783632,,,
47.4375000000,189,2.2962113848,,,
47.4531250000,189,-0.0141573745,,,
47.4687500000,189,-0.8536352676,,,
47.4843750000,189,-0.2810465367,,,
47.5000000000,190,3.9874362304,,,
47.5156250000,190,2.7014647908,,,
47.5312500000,190,-1.3195305297,,,
47.5468750000,190,-3.2648147874,,,
47.5625000000,190,-3.2459726849,,,
47.5781250000,190,0.6292690629,,,
47.5937500000,190,-0.0279368397,,,
47.6093750000,190,-3.8274409750,,,
47.6250000000,190,-4.6637152857,,,
47.6406250000,190,-1.5642627056,,,
47.6562500000,190,2.5490529059,,,
47.6718750000,190,0.5121568997,,,
47.6875000000,190,1.9262488134,33024,47.6992187500,0.0000000000
47.7031250000,190,6.1712227901,,,
47.7187500000,190,3.6861488285,,,
47.7343750000,190,3.0741465829,,,
47.7500000000,191,1.3039657217,,,
47.7656250000,191,-1.9597917528,,,
47.7812500000,191,-0.3290074141,,,
47.7968750000,191,0.1078045756,,,
47.8125000000,191,-1.0775679948,,,
47.8281250000,191,-3.2031584340,,,
47.8437500000,191,-3.1180563175,,,
47.8593750000,191,-1.0467325499,,,
47.8750000000,191,-2.4500783980,,,
47.8906250000,191,-2.3175886073,,,
47.9062500000,191,-2.1794320254,,,
47.9218750000,191,-1.0680919789,,,
47.9375000000,191,4.0203506659,,,
47.9531250000,191,4.1420315004,,,
47.9687500000,191,2.4582064013,,,
47.9843750000,191,0.7247983209,33024,47.9990234375,0.0000000000
48.0000000000,192,-2.3564590078,,,
48.0156250000,192,-0.9981732199,,,
48.0312500000,192,0.6699675560,,,
48.0468750000,192,1.6721948557,,,
48.0625000000,192,0.2065324963,,,
48.0781250000,192,-2.0484916947,,,
48.0937500000,192,1.2331947117,,,
48.1093750000,192,0.2632528619,,,
48.1250000000,192,-2.6200817858,,,
48.1406250000,192,-1.2128839206,,,
48.1562500000,192,-0.9221308812,,,
48.1718750000,192,-0.3071902481,,,
48.1875000000,192,-0.5854618704,,,
48.2031250000,192,0.5917939192,,,
48.2187500000,192,2.1832381628,,,
48.2343750000,192,-0.0208414053,,,
48.2500000000,193,-1.0060503722,,,
48.2656250000,193,-4.7292161753,,,
48.2812500000,193,-5.8264268242,,,
48.2968750000,193,0.2623140131,33024,48.2998046875,0.0000000000
48.3125000000,193,0.2297846165,,,
48.3281250000,193,-2.9387624253,,,
48.3437500000,193,-2.9153146428,,,
48.3593750000,193,0.4641901967,,,
48.3750000000,193,3.6132156464,,,
48.3906250000,193,0.3921209057,,,
48.4062500000,193,0.4145205369,,,
48.4218750000,193,2.1411340374,,,
48.4375000000,193,0.1322153397,,,
48.4531250000,193,2.3333695821,,,
48.4687500000,193,3.4529271634,,,
48.4843750000,193,-0.9920275316,,,
48.5000000000,194,-7.9793149678,,,
48.5156250000,194,-7.9594629195,,,
48.5312500000,194,4.2474494655,,,
48.5468750000,194,8.5492565966,,,
48.5625000000,194,3.2116054075,,,
48.5781250000,194,7.2108600505,,,
48.5937500000,194,16.3395826868,33024,48.5996093750,0.0000000000
48.6093750000,194,9.7334046532,,,
48.6250000000,194,-8.2596052690,,,
48.6406250000,194,-8.6914692400,,,
48.6562500000,194,-1.6296771249,,,
48.6718750000,194,-1.3662403837,,,
48.6875000000,194,4.5560513469,,,
48.7031250000,194,1.8923829266,,,
48.7187500000,194,-6.1479656210,,,
48.7343750000,194,-1.6283561624,,,
48.7500000000,195,1.3195482226,,,
48.7656250000,195,-0.0911991171,,,
48.7812500000,195,-1.0368307529,,,
48.7968750000,195,-2.1211415967,,,
48.8125000000,195,-0.6436540581,,,
48.8281250000,195,1.1856884999,,,
48.8437500000,195,3.2393538824,,,
48.8593750000,195,2.2252200898,,,
48.8750000000,195,-0.9635806401,,,
48.8906250000,195,-1.4825790640,33024,48.8994140625,0.0000000000
48.9062500000,195,0.7830754534,,,
48.9218750000,195,4.4934706404,,,
48.9375000000,195,0.3323719055,,,
48.9531250000,195,-4.6841259291,,,
48.9687500000,195,-2.7055594438,,,
48.9843750000,195,-4.1712990148,,,
49.0000000000,196,-4.0971815904,,,
49.0156250000,196,-3.2517724411,,,
49.0312500000,196,-4.9474268712,,,
49.0468750000,196,0.3701494048,,,
49.0625000000,196,5.7386871433,,,
49.0781250000,196,4.3320346263,,,
49.0937500000,196,-0.8638251684,,,
49.1093750000,196,-1.2045193391,,,
49.1250000000,196,4.4209871573,,,
49.1406250000,196,1.7458126228,,,
49.1562500000,196,-2.8098764940,,,
49.1718750000,196,-2.3055417459,,,
49.1875000000,196,-2.1705607451,33024,49.1992187500,0.0000000000
49.2031250000,196,-0.2313201728,,,
49.2187500000,196,-2.1526259999,,,
49.2343750000,196,-3.4233262059,,,
49.2500000000,197,-0.2774574678,,,
49.2656250000,197,-1.8921921689,,,
49.2812500000,197,-1.8501168254,,,
49.2968750000,197,-0.8180402008,,,
49.3125000000,197,-1.4159004381,,,
49.3281250000,197,1.5451450951,,,
49.3437500000,197,4.5984906018,,,
49.3593750000,197,5.4018627632,,,
49.3750000000,197,-0.0798267151,,,
49.3906250000,197,-2.8178468374,,,
49.4062500000,197,1.8162595090,,,
49.4218750000,197,0.0317338343,,,
49.4375000000,197,-1.8863612547,,,
49.4531250000,197,-0.6795645106,,,
49.4687500000,197,-0.2536570488,,,
49.4843750000,197,2.3873651684,33024,49.4990234375,0.0000000000
49.5000000000,198,1.6932550323,,,
49.5156250000,198,0.6303147626,,,
49.5312500000,198,0.7289606410,,,
49.5468750000,198,0.6687775598,,,
49.5625000000,198,2.1051941236,,,
49.5781250000,198,0.1939632887,,,
49.5937500000,198,0.5927911258,,,
49.6093750000,198,0.4585983384,,,
49.6250000000,198,-2.6175289912,,,
49.6406250000,198,1.4786657566,,,
49.6562500000,198,2.6476652411,,,
49.6718750000,198,-0.2493819060,,,
49.6875000000,198,0.2507071350,,,
49.7031250000,198,-0.5489358298,,,
49.7187500000,198,-1.5443968097,,,
49.7343750000,198,-2.0760136106,,,
49.7500000000,199,1.0729869390,,,
49.7656250000,199,1.8175994533,,,
49.7812500000,199,-2.7125329311,,,
49.7968750000,199,0.5099681611,33024,49.7998046875,0.0000000000
49.8125000000,199,1.5693198414,,,
49.8281250000,199,-2.3512395023,,,
49.8437500000,199,-1.2460366655,,,
49.8593750000,199,-0.2641534946,,,
49.8750000000,199,2.0925494888,,,
49.8906250000,199,1.2362011914,,,
49.9062500000,199,-1.1365518123,,,
49.9218750000,199,2.1170940346,,,
49.9375000000,199,1.9118410261,,,
49.9531250000,199,1.6917498378,,,
49.9687500000,199,0.2526852382,,,
49.9843750000,199,-3.1415482296,,,
50.0000000000,200,-0.3489936426,,,
50.0156250000,200,-1.4129610398,,,
50.0312500000,200,-3.7007461339,,,
50.0468750000,200,-0.8165743008,,,
50.0625000000,200,1.9540052777,,,
50.0781250000,200,2.7973939482,,,
50.0937500000,200,0.0375083965,33024,50.0996093750,0.0000000000
50.1093750000,200,0.4887315026,,,
50.1250000000,200,0.2221726073,,,
50.1406250000,200,-2.3225279391,,,
50.1562500000,200,0.7295080207,,,
50.1718750000,200,0.1291257478,,,
50.1875000000,200,0.1212651362,,,
50.2031250000,200,3.0678353851,,,
50.2187500000,200,0.6401924323,,,
50.2343750000,200,-0.3511660583,,,
50.2500000000,201,-0.1906238286,,,
50.2656250000,201,-0.1535847490,,,
50.2812500000,201,-2.1998473351,,,
50.2968750000,201,-4.4208437728,,,
50.3125000000,201,-0.0207754334,,,
50.3281250000,201,-0.1061528539,,,
50.3437500000,201,-1.6795183731,,,
50.3593750000,201,0.5326622487,,,
50.3750000000,201,0.0827433587,,,
50.3906250000,201,2.9327362096,33024,50.3994140625,0.0000000000
50.4062500000,201,3.1889380427,,,
50.4218750000,201,-0.8444414370,,,
50.4375000000,201,-1.1873309155,,,
50.4531250000,201,-0.1279374842,,,
50.4687500000,201,1.5603544274,,,
50.4843750000,201,-1.3866251168,,,
50.5000000000,202,-2.9176577602,,,
50.5156250000,202,1.2851678734,,,
50.5312500000,202,1.7350914568,,,
50.5468750000,202,3.0370271759,,,
50.5625000000,202,3.6884003288,,,
50.5781250000,202,6.0688988496,,,
50.5937500000,202,14.2161336727,,,
50.6093750000,202,14.9478683997,,,
50.6250000000,202,13.4499710485,,,
50.6406250000,202,12.8311395250,,,
50.6562500000,202,11.7080201556,,,
50.6718750000,202,16.0751805388,,,
50.6875000000,202,10.5926874565,33024,50.6992187500,0.0000000000
50.7031250000,202,-11.0519507328,,,
50.7187500000,202,-27.4949163110,,,
50.7343750000,202,-20.2357331037,,,
50.7500000000,203,-10.3281214743,,,
50.7656250000,203,-18.6727883627,,,
50.7812500000,203,-17.9676769795,,,
50.7968750000,203,-15.3315582225,,,
50.8125000000,203,-31.5809327767,,,
50.8281250000,203,-32.7937290252,,,
50.8437500000,203,-22.5212749077,,,
50.8593750000,203,-29.2878003277,,,
50.8750000000,203,-33.9626244307,,,
50.8906250000,203,-21.6286688969,,,
50.9062500000,203,-12.1857468006,,,
50.9218750000,203,-17.1925719186,,,
50.9375000000,203,-12.9410965044,,,
50.9531250000,203,2.8098233579,,,
50.9687500000,203,12.6728985652,,,
50.9843750000,203,29.3458304206,33024,50.9990234375,0.0000000000
51.0000000000,204,40.1125007086,,,
51.0156250000,204,34.5853523270,,,
51.0312500000,204,37.5879598735,,,
51.0468750000,204,38.7975088469,,,
51.0625000000,204,30.5922450169,,,
51.0781250000,204,26.7148258402,,,
51.0937500000,204,24.1739904618,,,
51.1093750000,204,21.2357455667,,,
51.1250000000,204,16.9022191343,,,
51.1406250000,204,13.7798261451,,,
51.1562500000,204,11.1668587850,,,
51.1718750000,204,9.5880460063,,,
51.1875000000,204,11.1837278314,,,
51.2031250000,204,5.4468539153,,,
51.2187500000,204,1.5632749212,,,
51.2343750000,204,3.1371609904,,,
51.2500000000,205,-0.1780726410,,,
51.2656250000,205,-3.5212024073,,,
51.2812500000,205,-7.2646122860,,,
51.2968750000,205,-6.7105016666,33024,51.2998046875,0.0000000000
51.3125000000,205,-7.7395549427,,,
51.3281250000,205,-17.1638036971,,,
51.3437500000,205,-17.0757595982,,,
51.3593750000,205,-12.3560520304,,,
51.3750000000,205,-10.3599329371,,,
51.3906250000,205,-8.1135810446,,,
51.4062500000,205,-8.1921914405,,,
51.4218750000,205,-5.6962951678,,,
51.4375000000,205,-7.4564837921,,,
51.4531250000,205,-10.7344507405,,,
51.4687500000,205,-9.3054441242,,,
51.4843750000,205,-10.6983694260,,,
51.5000000000,206,-9.1316394441,,,
51.5156250000,206,-7.4691644007,,,
51.5312500000,206,-7.9276691057,,,
51.5468750000,206,-5.9494701551,,,
51.5625000000,206,-4.2479799340,,,
51.5781250000,206,-1.0150977115,,,
51.5937500000,206,-4.0366361346,33024,51.5996093750,0.0000000000
51.6093750000,206,-5.9836004107,,,
51.6250000000,206,1.3593695398,,,
51.6406250000,206,0.5005151121,,,
51.6562500000,206,-2.7499122481,,,
51.6718750000,206,-0.4050832995,,,
51.6875000000,206,1.9421674299,,,
51.7031250000,206,2.6290743854,,,
51.7187500000,206,-1.6526504008,,,
51.7343750000,206,-0.9438563823,,,
51.7500000000,207,0.5669200652,,,
51.7656250000,207,-3.2415831101,,,
51.7812500000,207,0.0896309448,,,
51.7968750000,207,3.5242576964,,,
51.8125000000,207,3.8412723255,,,
51.8281250000,207,2.6879883066,,,
51.8437500000,207,-0.0148860278,,,
51.8593750000,207,3.2738838568,,,
51.8750000000,207,2.7465416163,,,
51.8906250000,207,0.6659125353,33024,51.8994140625,0.0000000000
51.9062500000,207,3.5228021662,,,
51.9218750000,207,3.6768791888,,,
51.9375000000,207,4.5056707611,,,
51.9531250000,207,3.0349516265,,,
51.9687500000,207,1.9852966107,,,
51.9843750000,207,3.6824966453,,,
52.0000000000,208,0.7819143122,,,
52.0156250000,208,1.5210299562,,,
52.0312500000,208,2.9420816741,,,
52.0468750000,208,2.5665127562,,,
52.0625000000,208,3.3593816386,,,
52.0781250000,208,0.6627503756,,,
52.0937500000,208,2.1596637080,,,
52.1093750000,208,1.1526787595,,,
52.1250000000,208,-2.6580486159,,,
52.1406250000,208,2.1352452813,,,
52.1562500000,208,3.5583384575,,,
52.1718750000,208,2.0946681691,,,
52.1875000000,208,0.5277818558,33024,52.1992187500,0.0000000000
52.2031250000,208,-0.7282496412,,,
52.2187500000,208,4.2650161455,,,
52.2343750000,208,3.4799162597,,,
52.2500000000,209,-0.6965752283,,,
52.2656250000,209,0.1651322069,,,
52.2812500000,209,2.4755567821,,,
52.2968750000,209,3.0279029108,,,
52.3125000000,209,-1.2179882804,,,
52.3281250000,209,0.6563371767,,,
52.3437500000,209,3.3573527441,,,
52.3593750000,209,-1.5918149863,,,
52.3750000000,209,-0.5689931763,,,
52.3906250000,209,1.4964564308,,,
52.4062500000,209,1.1351595663,,,
52.4218750000,209,-1.0472263138,,,
52.4375000000,209,-5.2646401367,,,
52.4531250000,209,-0.7822897595,,,
52.4687500000,209,1.7280014707,,,
52.4843750000,209,-1.0554531777,33024,52.4990234375,0.0000000000
52.5000000000,210,-1.1741835316,,,
52.5156250000,210,-2.3490594193,,,
52.5312500000,210,-0.9399661874,,,
52.5468750000,210,-2.2397720238,,,
52.5625000000,210,-5.0543851968,,,
52.5781250000,210,-3.9858716396,,,
52.5937500000,210,-5.8291908608,,,
52.6093750000,210,-4.7708033676,,,
52.6250000000,210,-3.7692951397,,,
52.6406250000,210,-4.0947147369,,,
52.6562500000,210,-1.5016269456,,,
52.6718750000,210,-2.7150984027,,,
52.6875000000,210,-0.6070357944,,,
52.7031250000,210,0.9677404363,,,
52.7187500000,210,-0.8780469233,,,
52.7343750000,210,2.9256135269,,,
52.7500000000,211,2.0533160576,,,
52.7656250000,211,-0.9814421232,,,
52.7812500000,211,-0.4405773455,,,
52.7968750000,211,0.0182026408,33024,52.7998046875,0.0000000000
52.8125000000,211,1.6398634490,,,
52.8281250000,211,-0.7271538676,,,
52.8437500000,211,-0.9088051423,,,
52.8593750000,211,0.4353011418,,,
52.8750000000,211,-2.4298149826,,,
52.8906250000,211,-1.2385734196,,,
52.9062500000,211,-0.2408668694,,,
