Time:64Hz,Epoch,AF3,Event Id,Event Date,Event Duration
0.0000000000,0,0.6072259453,,,
0.0156250000,0,4.0600733712,,,
0.0312500000,0,5.9795502432,,,
0.0468750000,0,2.6791090040,,,
0.0625000000,0,-3.2142801200,,,
0.0781250000,0,-5.3897136578,,,
0.0937500000,0,-0.7029504879,,,
0.1093750000,0,-14.1861916783,,,
0.1250000000,0,-45.2833479208,,,
0.1406250000,0,-32.6697479812,,,
0.1562500000,0,26.7421927561,,,
0.1718750000,0,46.3371012493,,,
0.1875000000,0,15.3657004083,,,
0.2031250000,0,10.0524145250,,,
0.2187500000,0,24.3940453658,,,
0.2343750000,0,13.5313715150,,,
0.2500000000,1,-0.9143278915,,,
0.2656250000,1,-1.8072435423,,,
0.2812500000,1,0.1598415401,,,
0.2968750000,1,-2.1826913828,33024,0.2998046875,0.0000000000
0.3125000000,1,-5.2382477061,,,
0.3281250000,1,-1.5618413130,,,
0.3437500000,1,-0.3419832185,,,
0.3593750000,1,-3.5012841641,,,
0.3750000000,1,-4.4465908103,,,
0.3906250000,1,-6.0617113395,,,
0.4062500000,1,-4.8611096996,,,
0.4218750000,1,-3.7454562825,,,
0.4375000000,1,-8.5939848477,,,
0.4531250000,1,-11.1415235669,,,
0.4687500000,1,-7.6862048808,,,
0.4843750000,1,-4.7949700185,,,
0.5000000000,2,-6.1481630606,,,
0.5156250000,2,-5.4100823975,,,
0.5312500000,2,-1.7157908348,,,
0.5468750000,2,-0.6923772522,,,
0.5625000000,2,-1.0653859859,,,
0.5781250000,2,-3.1534310080,,,
0.5937500000,2,-1.6303817615,33024,0.5996093750,0.0000000000
0.6093750000,2,4.9130553410,,,
0.6250000000,2,4.8338555166,,,
0.6406250000,2,1.0894057146,,,
0.6562500000,2,0.8007720351,,,
0.6718750000,2,2.3777228997,,,
0.6875000000,2,4.3183726368,,,
0.7031250000,2,2.6857241558,,,
0.7187500000,2,-0.2452290697,,,
0.7343750000,2,-0.9094922930,,,
0.7500000000,3,0.5719061045,,,
0.7656250000,3,1.6562248258,,,
0.7812500000,3,-1.4087581528,,,
0.7968750000,3,-0.9588931553,,,
0.8125000000,3,2.9370878451,,,
0.8281250000,3,2.8576255881,,,
0.8437500000,3,2.6956116901,,,
0.8593750000,3,2.2648204075,,,
0.8750000000,3,2.0697792446,,,
0.8906250000,3,4.0031014449,33024,0.8994140625,0.0000000000
0.9062500000,3,4.8567811079,,,
0.9218750000,3,6.4051808771,,,
0.9375000000,3,6.7999947463,,,
0.9531250000,3,4.3629867031,,,
0.9687500000,3,1.7801486803,,,
0.9843750000,3,0.0383161916,,,
1.0000000000,4,-0.1147453392,,,
1.0156250000,4,-2.8376935143,,,
1.0312500000,4,-3.5777074272,,,
1.0468750000,4,1.8528847281,,,
1.0625000000,4,2.5244019703,,,
1.0781250000,4,0.0431777339,,,
1.0937500000,4,0.2491962493,,,
1.1093750000,4,0.6887902546,,,
1.1250000000,4,1.5872160975,,,
1.1406250000,4,0.7476495366,,,
1.1562500000,4,-2.7030296994,,,
1.1718750000,4,-5.6716369309,,,
1.1875000000,4,-4.9465875527,33024,1.1992187500,0.0000000000
1.2031250000,4,-4.0125636638,,,
1.2187500000,4,-5.6587674010,,,
1.2343750000,4,-2.2047598171,,,
1.2500000000,5,1.1013252808,,,
1.2656250000,5,-1.1476222109,,,
1.2812500000,5,-0.4391839361,,,
1.2968750000,5,0.8595367793,,,
1.3125000000,5,1.3032268081,,,
1.3281250000,5,2.7332283999,,,
1.3437500000,5,0.9982121187,,,
1.3593750000,5,-0.2905747901,,,
1.3750000000,5,0.4768110998,,,
1.3906250000,5,-0.6048256582,,,
1.4062500000,5,-3.5813264555,,,
1.4218750000,5,-4.0054085949,,,
1.4375000000,5,-0.4054156584,,,
1.4531250000,5,0.4425702603,,,
1.4687500000,5,0.8707766335,,,
1.4843750000,5,3.2033010078,33024,1.4990234375,0.0000000000
1.5000000000,6,1.6647374085,,,
1.5156250000,6,-0.0322790278,,,
1.5312500000,6,-0.6266764907,,,
1.5468750000,6,-1.4772681003,,,
1.5625000000,6,-1.0649229541,,,
1.5781250000,6,-1.5995033545,,,
1.5937500000,6,-3.0467027451,,,
1.6093750000,6,-5.7016282711,,,
1.6250000000,6,-6.8002236388,,,
1.6406250000,6,-4.2094779919,,,
1.6562500000,6,-0.9397662380,,,
1.6718750000,6,3.4011861557,,,
1.6875000000,6,4.3672283859,,,
1.7031250000,6,3.5174768771,,,
1.7187500000,6,6.7523107707,,,
1.7343750000,6,6.1155032863,,,
1.7500000000,7,3.6106871365,,,
1.7656250000,7,4.2019783744,,,
1.7812500000,7,1.3372862662,,,
1.7968750000,7,-2.0484682498,33024,1.7998046875,0.0000000000
1.8125000000,7,-1.5214132746,,,
1.8281250000,7,-0.5218593415,,,
1.8437500000,7,-2.0443333318,,,
1.8593750000,7,-2.2285532332,,,
1.8750000000,7,0.8339048077,,,
1.8906250000,7,-0.3619074564,,,
1.9062500000,7,-1.3624680937,,,
1.9218750000,7,1.7004810521,,,
1.9375000000,7,1.0519835049,,,
1.9531250000,7,-0.6240789650,,,
1.9687500000,7,-1.0523046407,,,
1.9843750000,7,-2.7686179222,,,
2.0000000000,8,-4.3171928038,,,
2.0156250000,8,-5.9501477477,,,
2.0312500000,8,-12.9324052184,,,
2.0468750000,8,-21.3224729548,,,
2.0625000000,8,-5.7750142242,,,
2.0781250000,8,38.6648118208,,,
2.0937500000,8,63.3790255255,33024,2.0996093750,0.0000000000
2.1093750000,8,32.8113553844,,,
2.1250000000,8,-14.5236208410,,,
2.1406250000,8,-22.8338924839,,,
2.1562500000,8,-6.8427979371,,,
2.1718750000,8,-7.4912223391,,,
2.1875000000,8,-10.8018500399,,,
2.2031250000,8,-5.1980727699,,,
2.2187500000,8,-5.6117749335,,,
2.2343750000,8,-0.7432230368,,,
2.2500000000,9,15.3817188574,,,
2.2656250000,9,18.0872020602,,,
2.2812500000,9,-4.6488135853,,,
2.2968750000,9,-25.5063882020,,,
2.3125000000,9,-21.0930698674,,,
2.3281250000,9,-10.6901108968,,,
2.3437500000,9,-10.5614178651,,,
2.3593750000,9,-9.7334594837,,,
2.3750000000,9,-5.0821721052,,,
2.3906250000,9,-3.0826132095,33024,2.3994140625,0.0000000000
2.4062500000,9,-3.9953538830,,,
2.4218750000,9,-3.5133491098,,,
2.4375000000,9,-1.4374723194,,,
2.4531250000,9,1.5683811121,,,
2.4687500000,9,2.7234122590,,,
2.4843750000,9,-2.7495245227,,,
2.5000000000,10,-0.5967901066,,,
2.5156250000,10,0.9233626219,,,
2.5312500000,10,-22.5106236861,,,
2.5468750000,10,-24.4620060112,,,
2.5625000000,10,25.4332344797,,,
2.5781250000,10,56.6884388131,,,
2.5937500000,10,30.4698850945,,,
2.6093750000,10,3.8003785433,,,
2.6250000000,10,9.1168053047,,,
2.6406250000,10,9.8665691290,,,
2.6562500000,10,-6.2168059204,,,
2.6718750000,10,-15.0567657914,,,
2.6875000000,10,-10.2602163259,33024,2.6992187500,0.0000000000
2.7031250000,10,0.8473216312,,,
2.7187500000,10,8.6379631768,,,
2.7343750000,10,9.2570306245,,,
2.7500000000,11,6.3214593332,,,
2.7656250000,11,4.8712065293,,,
2.7812500000,11,10.5288937248,,,
2.7968750000,11,16.4083189577,,,
2.8125000000,11,15.4323492161,,,
2.8281250000,11,18.4295262216,,,
2.8437500000,11,30.0595489071,,,
2.8593750000,11,34.7403678129,,,
2.8750000000,11,13.6212749460,,,
2.8906250000,11,-21.7183139691,,,
2.9062500000,11,-36.2415398913,,,
2.9218750000,11,-30.8048235831,,,
2.9375000000,11,-28.0965057693,,,
2.9531250000,11,-27.3905144765,,,
2.9687500000,11,-22.6391335876,,,
2.9843750000,11,-17.6507944646,33024,2.9990234375,0.0000000000
3.0000000000,12,-16.7058165425,,,
3.0156250000,12,-14.4600770724,,,
3.0312500000,12,-9.5439530251,,,
3.0468750000,12,-7.3343524765,,,
3.0625000000,12,-6.4689200763,,,
3.0781250000,12,-6.6091409331,,,
3.0937500000,12,-3.0669534297,,,
3.1093750000,12,-8.1406672929,,,
3.1250000000,12,-27.1119848647,,,
3.1406250000,12,-15.7618619717,,,
3.1562500000,12,20.3625432141,,,
3.1718750000,12,24.4873340093,,,
3.1875000000,12,7.9161415367,,,
3.2031250000,12,9.1282847358,,,
3.2187500000,12,16.5366484876,,,
3.2343750000,12,11.0758724275,,,
3.2500000000,13,6.7592941039,,,
3.2656250000,13,11.8745840105,,,
3.2812500000,13,12.8283550827,,,
3.2968750000,13,9.0688565020,33024,3.2998046875,0.0000000000
3.3125000000,13,7.6827229888,,,
3.3281250000,13,8.3594836665,,,
3.3437500000,13,9.5421164969,,,
3.3593750000,13,8.2597961849,,,
3.3750000000,13,5.5844039470,,,
3.3906250000,13,2.0351425658,,,
3.4062500000,13,-1.3869758240,,,
3.4218750000,13,-2.8831734433,,,
3.4375000000,13,-6.6966122364,,,
3.4531250000,13,-7.9272665638,,,
3.4687500000,13,-4.2645717907,,,
3.4843750000,13,-2.6112730988,,,
3.5000000000,14,-1.6338755378,,,
3.5156250000,14,-1.2862115228,,,
3.5312500000,14,2.4219010675,,,
3.5468750000,14,4.7718908539,,,
3.5625000000,14,-5.3510262897,,,
3.5781250000,14,-5.0919161657,,,
3.5937500000,14,10.4878813513,33024,3.5996093750,0.0000000000
3.6093750000,14,7.2743056948,,,
3.6250000000,14,-10.4573935218,,,
3.6406250000,14,-11.3006948899,,,
3.6562500000,14,-0.8477133931,,,
3.6718750000,14,-1.4738764829,,,
3.6875000000,14,-4.7735730946,,,
3.7031250000,14,-1.1251251825,,,
3.7187500000,14,0.9480438756,,,
3.7343750000,14,3.4662858551,,,
3.7500000000,15,7.1864660778,,,
3.7656250000,15,11.2797254497,,,
3.7812500000,15,21.6132641775,,,
3.7968750000,15,23.7212605576,,,
3.8125000000,15,3.4638620715,,,
3.8281250000,15,-19.8285800948,,,
3.8437500000,15,-22.5729042974,,,
3.8593750000,15,-12.3197006634,,,
3.8750000000,15,-10.7953776414,,,
3.8906250000,15,-15.7010401696,33024,3.8994140625,0.0000000000
3.9062500000,15,-14.7037602488,,,
3.9218750000,15,-8.8858965290,,,
3.9375000000,15,-4.0594351972,,,
3.9531250000,15,-5.8755753694,,,
3.9687500000,15,-8.0063045873,,,
3.9843750000,15,-2.5745208483,,,
4.0000000000,16,3.8469837396,,,
4.0156250000,16,5.3170923167,,,
4.0312500000,16,2.4063320125,,,
4.0468750000,16,1.8984387009,,,
4.0625000000,16,4.6262204014,,,
4.0781250000,16,3.6734340531,,,
4.0937500000,16,1.6778372159,,,
4.1093750000,16,0.7504026378,,,
4.1250000000,16,-2.0273214053,,,
4.1406250000,16,-11.3353223398,,,
4.1562500000,16,-15.8760919089,,,
4.1718750000,16,2.2116702267,,,
4.1875000000,16,17.4081007955,33024,4.1992187500,0.0000000000
4.2031250000,16,11.5502374082,,,
4.2187500000,16,7.3725201735,,,
4.2343750000,16,7.4158194013,,,
4.2500000000,17,5.4160567997,,,
4.2656250000,17,7.6075921207,,,
4.2812500000,17,13.2374200254,,,
4.2968750000,17,16.9491016520,,,
4.3125000000,17,15.2820601289,,,
4.3281250000,17,11.6730097528,,,
4.3437500000,17,7.8478334584,,,
4.3593750000,17,3.2964376169,,,
4.3750000000,17,-0.8383771535,,,
4.3906250000,17,-5.8556875598,,,
4.4062500000,17,-6.7855304592,,,
4.4218750000,17,-5.9499287472,,,
4.4375000000,17,-7.1508074474,,,
4.4531250000,17,-3.1989257729,,,
4.4687500000,17,-0.0979212141,,,
4.4843750000,17,-3.6618636361,33024,4.4990234375,0.0000000000
4.5000000000,18,-6.4637623985,,,
4.5156250000,18,-4.9768701984,,,
4.5312500000,18,-2.3964989923,,,
4.5468750000,18,-3.0735139990,,,
4.5625000000,18,-2.7873369212,,,
4.5781250000,18,-0.5790109921,,,
4.5937500000,18,-2.7518538359,,,
4.6093750000,18,-5.3229245509,,,
4.6250000000,18,-6.0153084298,,,
4.6406250000,18,-4.5145167347,,,
4.6562500000,18,-0.5312563387,,,
4.6718750000,18,-0.9006117318,,,
4.6875000000,18,-2.4770189427,,,
4.7031250000,18,0.4756234468,,,
4.7187500000,18,4.1589325823,,,
4.7343750000,18,2.1838406029,,,
4.7500000000,19,-5.2024107518,,,
4.7656250000,19,-8.1738467788,,,
4.7812500000,19,-6.5152333643,,,
4.7968750000,19,-4.5248328958,33024,4.7998046875,0.0000000000
4.8125000000,19,-3.2211537896,,,
4.8281250000,19,-5.2713091984,,,
4.8437500000,19,-3.7339376291,,,
4.8593750000,19,0.5868939988,,,
4.8750000000,19,0.6834598484,,,
4.8906250000,19,1.5780093092,,,
4.9062500000,19,3.7897007547,,,
4.9218750000,19,5.9918143353,,,
4.9375000000,19,7.6996814429,,,
4.9531250000,19,7.5627930038,,,
4.9687500000,19,9.5257437747,,,
4.9843750000,19,9.8402774900,,,
5.0000000000,20,5.2449988845,,,
5.0156250000,20,0.0906050587,,,
5.0312500000,20,-0.4909808333,,,
5.0468750000,20,4.0404423400,,,
5.0625000000,20,2.9538647028,,,
5.0781250000,20,-2.0914128608,,,
5.0937500000,20,-2.1802043675,33024,5.0996093750,0.0000000000
5.1093750000,20,-1.5478415471,,,
5.1250000000,20,-1.4513338432,,,
5.1406250000,20,-3.3213406802,,,
5.1562500000,20,-6.7524631852,,,
5.1718750000,20,-7.7223853532,,,
5.1875000000,20,-6.9618954770,,,
5.2031250000,20,-4.8339866190,,,
5.2187500000,20,-4.3892951781,,,
5.2343750000,20,-4.2934613232,,,
5.2500000000,21,-1.0336033202,,,
5.2656250000,21,0.1939590757,,,
5.2812500000,21,0.6815944362,,,
5.2968750000,21,3.2813766390,,,
5.3125000000,21,4.7216367855,,,
5.3281250000,21,3.5556555009,,,
5.3437500000,21,3.1651083146,,,
5.3593750000,21,8.6861756336,,,
5.3750000000,21,11.6041740199,,,
5.3906250000,21,7.3464837464,33024,5.3994140625,0.0000000000
5.4062500000,21,5.6967286462,,,
5.4218750000,21,4.1695756263,,,
5.4375000000,21,1.4103674763,,,
5.4531250000,21,0.8367778032,,,
5.4687500000,21,-1.6591769404,,,
5.4843750000,21,-4.3656026242,,,
5.5000000000,22,-4.1540162368,,,
5.5156250000,22,-2.0171383452,,,
5.5312500000,22,-1.7039417377,,,
5.5468750000,22,-3.0340241295,,,
5.5625000000,22,0.1228040470,,,
5.5781250000,22,0.1024708447,,,
5.5937500000,22,-7.6261825299,,,
5.6093750000,22,-11.0128700184,,,
5.6250000000,22,-9.0792492228,,,
5.6406250000,22,-15.5844399211,,,
5.6562500000,22,-25.9824931198,,,
5.6718750000,22,-13.9153744445,,,
5.6875000000,22,24.7401959339,33024,5.6992187500,0.0000000000
5.7031250000,22,58.2632019678,,,
5.7187500000,22,49.6014687704,,,
5.7343750000,22,2.6286135937,,,
5.7500000000,23,-24.3521865423,,,
5.7656250000,23,-10.4586889529,,,
5.7812500000,23,-2.1734691273,,,
5.7968750000,23,-8.0885790933,,,
5.8125000000,23,-5.1994392045,,,
5.8281250000,23,-2.1056851193,,,
5.8437500000,23,-0.1519422678,,,
5.8593750000,23,12.5878816212,,,
5.8750000000,23,21.7502262252,,,
5.8906250000,23,4.3075559187,,,
5.9062500000,23,-20.9186095731,,,
5.9218750000,23,-21.3369265425,,,
5.9375000000,23,-12.3819082904,,,
5.9531250000,23,-13.0260841806,,,
5.9687500000,23,-11.9533917006,,,
5.9843750000,23,-7.6455924390,33024,5.9990234375,0.0000000000
6.0000000000,24,-5.9327637487,,,
6.0156250000,24,-4.7844016713,,,
6.0312500000,24,-3.5118111748,,,
6.0468750000,24,-4.8979327233,,,
6.0625000000,24,-4.0470197903,,,
6.0781250000,24,4.2415870235,,,
6.0937500000,24,8.5029889121,,,
6.1093750000,24,6.4318421893,,,
6.1250000000,24,5.5248072423,,,
6.1406250000,24,5.0562718411,,,
6.1562500000,24,7.4693616496,,,
6.1718750000,24,7.5636884965,,,
6.1875000000,24,3.5133707760,,,
6.2031250000,24,4.7849739845,,,
6.2187500000,24,6.9241662358,,,
6.2343750000,24,4.2055085616,,,
6.2500000000,25,-0.7171962014,,,
6.2656250000,25,-2.2190471134,,,
6.2812500000,25,2.2646164223,,,
6.2968750000,25,5.7783609602,33024,6.2998046875,0.0000000000
6.3125000000,25,5.8866224274,,,
6.3281250000,25,3.3468218295,,,
6.3437500000,25,0.7872532892,,,
6.3593750000,25,1.5868240607,,,
6.3750000000,25,1.6476451761,,,
6.3906250000,25,1.6218472493,,,
6.4062500000,25,1.6783911106,,,
6.4218750000,25,0.9159184862,,,
6.4375000000,25,1.6236374002,,,
6.4531250000,25,-1.0402003278,,,
6.4687500000,25,-4.1567820359,,,
6.4843750000,25,-3.2979623478,,,
6.5000000000,26,-2.6850414927,,,
6.5156250000,26,-1.2810899733,,,
6.5312500000,26,0.0140333837,,,
6.5468750000,26,0.9330408666,,,
6.5625000000,26,1.6919487659,,,
6.5781250000,26,-2.4031034784,,,
6.5937500000,26,-6.7313130569,33024,6.5996093750,0.0000000000
6.6093750000,26,-1.8119777982,,,
6.6250000000,26,-5.3044027994,,,
6.6406250000,26,-39.5677137524,,,
6.6562500000,26,-50.1479721135,,,
6.6718750000,26,7.7499504687,,,
6.6875000000,26,48.3898031259,,,
6.7031250000,26,22.7628576126,,,
6.7187500000,26,4.7712464122,,,
6.7343750000,26,18.2746668265,,,
6.7500000000,27,21.2940205219,,,
6.7656250000,27,10.1945803395,,,
6.7812500000,27,6.9398658209,,,
6.7968750000,27,8.3466754618,,,
6.8125000000,27,-1.2930749528,,,
6.8281250000,27,-11.5278043527,,,
6.8437500000,27,-10.6312789210,,,
6.8593750000,27,-8.2515720095,,,
6.8750000000,27,-8.7927946083,,,
6.8906250000,27,-9.0085037079,33024,6.8994140625,0.0000000000
6.9062500000,27,-7.7560229067,,,
6.9218750000,27,-6.6671403242,,,
6.9375000000,27,-3.5954299679,,,
6.9531250000,27,1.2544685444,,,
6.9687500000,27,-0.2879950185,,,
6.9843750000,27,-2.4807838647,,,
7.0000000000,28,0.5693202590,,,
7.0156250000,28,0.6689005163,,,
7.0312500000,28,-2.5306939978,,,
7.0468750000,28,-4.5655376534,,,
7.0625000000,28,-2.8738058091,,,
7.0781250000,28,-0.6472620333,,,
7.0937500000,28,-2.0298391135,,,
7.1093750000,28,-3.2476702812,,,
7.1250000000,28,-3.7587940781,,,
7.1406250000,28,-2.1070402712,,,
7.1562500000,28,0.4516725185,,,
7.1718750000,28,-0.0947919775,,,
7.1875000000,28,1.4652538440,33024,7.1992187500,0.0000000000
7.2031250000,28,3.2965146228,,,
7.2187500000,28,0.9494041571,,,
7.2343750000,28,-2.7778190589,,,
7.2500000000,29,-3.4389622569,,,
7.2656250000,29,1.8201934283,,,
7.2812500000,29,3.2826694125,,,
7.2968750000,29,0.4765138341,,,
7.3125000000,29,4.5267041152,,,
7.3281250000,29,8.2846447680,,,
7.3437500000,29,5.0209610501,,,
7.3593750000,29,1.1777524535,,,
7.3750000000,29,2.7590662107,,,
7.3906250000,29,6.0073709401,,,
7.4062500000,29,2.4361811319,,,
7.4218750000,29,-1.3903852908,,,
7.4375000000,29,0.0710385514,,,
7.4531250000,29,2.1366705755,,,
7.4687500000,29,2.8597344301,,,
7.4843750000,29,-0.3374724196,33024,7.4990234375,0.0000000000
7.5000000000,30,-1.6013209393,,,
7.5156250000,30,1.8121031391,,,
7.5312500000,30,1.0052784770,,,
7.5468750000,30,-2.5461354928,,,
7.5625000000,30,-2.4668295048,,,
7.5781250000,30,1.2714777160,,,
7.5937500000,30,2.4706138872,,,
7.6093750000,30,0.0331720999,,,
7.6250000000,30,0.1995823264,,,
7.6406250000,30,0.2168199238,,,
7.6562500000,30,-0.8388008431,,,
7.6718750000,30,-0.7994017034,,,
7.6875000000,30,6.0657468519,,,
7.7031250000,30,24.0357847972,,,
7.7187500000,30,24.6612236335,,,
7.7343750000,30,-3.9149234477,,,
7.7500000000,31,-22.6942639774,,,
7.7656250000,31,-16.3457881277,,,
7.7812500000,31,-9.2517361564,,,
7.7968750000,31,-11.7372027948,33024,7.7998046875,0.0000000000
7.8125000000,31,-13.6312210252,,,
7.8281250000,31,-10.2905217041,,,
7.8437500000,31,-5.2903615311,,,
7.8593750000,31,-1.0458777952,,,
7.8750000000,31,0.0989054156,,,
7.8906250000,31,0.2008330093,,,
7.9062500000,31,0.9347485920,,,
7.9218750000,31,-0.5080220150,,,
7.9375000000,31,1.3439846837,,,
7.9531250000,31,5.5311766184,,,
7.9687500000,31,5.1668222159,,,
7.9843750000,31,3.2989252337,,,
8.0000000000,32,0.6854770594,,,
8.0156250000,32,-0.0257488954,,,
8.0312500000,32,1.3395273463,,,
8.0468750000,32,0.4846363694,,,
8.0625000000,32,0.9534511547,,,
8.0781250000,32,1.1442848310,,,
8.0937500000,32,0.8652269840,33024,8.0996093750,0.0000000000
8.1093750000,32,3.3968951112,,,
8.1250000000,32,3.7179993908,,,
8.1406250000,32,1.2310603735,,,
8.1562500000,32,0.7947818254,,,
8.1718750000,32,4.5986725980,,,
8.1875000000,32,6.5315943357,,,
8.2031250000,32,2.3929471713,,,
8.2187500000,32,0.1106238150,,,
8.2343750000,32,-0.0894188025,,,
8.2500000000,33,-0.6233183862,,,
8.2656250000,33,-2.1848502480,,,
8.2812500000,33,-6.2216734081,,,
8.2968750000,33,-3.5258850731,,,
8.3125000000,33,1.8854436523,,,
8.3281250000,33,1.2733047230,,,
8.3437500000,33,1.7702053694,,,
8.3593750000,33,2.4549382931,,,
8.3750000000,33,0.9961201552,,,
8.3906250000,33,0.2483680993,33024,8.3994140625,0.0000000000
8.4062500000,33,-0.6713454638,,,
8.4218750000,33,-1.3879929478,,,
8.4375000000,33,-0.5854031377,,,
8.4531250000,33,1.4186979503,,,
8.4687500000,33,-1.1322071417,,,
8.4843750000,33,-4.3067663117,,,
8.5000000000,34,-0.6517046768,,,
8.5156250000,34,-0.5025339362,,,
8.5312500000,34,-3.4918096154,,,
8.5468750000,34,-1.8740680230,,,
8.5625000000,34,0.2008503790,,,
8.5781250000,34,2.1927765612,,,
8.5937500000,34,2.5993867788,,,
8.6093750000,34,3.0914741590,,,
8.6250000000,34,-1.6610524817,,,
8.6406250000,34,-19.3664229203,,,
8.6562500000,34,-24.3240063914,,,
8.6718750000,34,-2.5752808134,,,
8.6875000000,34,16.1005205902,33024,8.6992187500,0.0000000000
8.7031250000,34,10.8148571458,,,
8.7187500000,34,1.9828337124,,,
8.7343750000,34,7.2900765757,,,
8.7500000000,35,10.0250165447,,,
8.7656250000,35,7.3115274843,,,
8.7812500000,35,9.1261753363,,,
8.7968750000,35,8.7448900502,,,
8.8125000000,35,4.7579130011,,,
8.8281250000,35,2.4307928791,,,
8.8437500000,35,0.5233273926,,,
8.8593750000,35,-5.6908221074,,,
8.8750000000,35,-10.2340039178,,,
8.8906250000,35,-5.8778812593,,,
8.9062500000,35,-4.7547054612,,,
8.9218750000,35,-7.3688401161,,,
8.9375000000,35,-3.8820251367,,,
8.9531250000,35,-3.0311066868,,,
8.9687500000,35,-3.9514061122,,,
8.9843750000,35,-0.9732163910,33024,8.9990234375,0.0000000000
9.0000000000,36,1.4782885081,,,
9.0156250000,36,4.4094157172,,,
9.0312500000,36,4.4293899878,,,
9.0468750000,36,1.6406439232,,,
9.0625000000,36,1.9384138065,,,
9.0781250000,36,3.1816811577,,,
9.0937500000,36,2.2460507969,,,
9.1093750000,36,-2.1565585178,,,
9.1250000000,36,-6.4488499488,,,
9.1406250000,36,-7.1281638353,,,
9.1562500000,36,-5.6346420920,,,
9.1718750000,36,-5.5253830094,,,
9.1875000000,36,-9.6334159149,,,
9.2031250000,36,-8.2458452227,,,
9.2187500000,36,-0.5189610062,,,
9.2343750000,36,1.9435062308,,,
9.2500000000,37,3.9416597356,,,
9.2656250000,37,8.1422440384,,,
9.2812500000,37,9.3707980844,,,
9.2968750000,37,7.0915990731,33024,9.2998046875,0.0000000000
9.3125000000,37,1.9032681020,,,
9.3281250000,37,-0.8886311601,,,
9.3437500000,37,-0.8485225402,,,
9.3593750000,37,0.8611776032,,,
9.3750000000,37,3.1009725295,,,
9.3906250000,37,0.8894327445,,,
9.4062500000,37,0.6046985699,,,
9.4218750000,37,4.8261736443,,,
9.4375000000,37,6.2307424090,,,
9.4531250000,37,3.7064376300,,,
9.4687500000,37,0.0724642349,,,
9.4843750000,37,0.0739762368,,,
9.5000000000,38,-0.5155573311,,,
9.5156250000,38,-2.4181681930,,,
9.5312500000,38,0.3772610815,,,
9.5468750000,38,-0.7752947563,,,
9.5625000000,38,-6.0667476707,,,
9.5781250000,38,-6.7795762477,,,
9.5937500000,38,-4.8521120948,33024,9.5996093750,0.0000000000
9.6093750000,38,-3.4581769996,,,
9.6250000000,38,-2.5838397645,,,
9.6406250000,38,1.0693293926,,,
9.6562500000,38,4.3883484507,,,
9.6718750000,38,4.9202019825,,,
9.6875000000,38,6.7632370703,,,
9.7031250000,38,4.1320826631,,,
9.7187500000,38,-0.7326275967,,,
9.7343750000,38,0.8704204105,,,
9.7500000000,39,1.5681132786,,,
9.7656250000,39,-2.0565837228,,,
9.7812500000,39,-4.9977015404,,,
9.7968750000,39,-8.4780156960,,,
9.8125000000,39,-15.0809775521,,,
9.8281250000,39,-14.8491755074,,,
9.8437500000,39,4.5556559508,,,
9.8593750000,39,38.1696070633,,,
9.8750000000,39,59.5686961415,,,
9.8906250000,39,32.6116094053,33024,9.8994140625,0.0000000000
9.9062500000,39,-21.6563582904,,,
9.9218750000,39,-35.8817928532,,,
9.9375000000,39,-17.5026785480,,,
9.9531250000,39,-15.8215589453,,,
9.9687500000,39,-21.6216144202,,,
9.9843750000,39,-15.9532107701,,,
10.0000000000,40,-7.1278060772,,,
10.0156250000,40,-4.0062954252,,,
10.0312500000,40,-2.0117507689,,,
10.0468750000,40,15.1811066299,,,
10.0625000000,40,31.1991831511,,,
10.0781250000,40,14.5076600595,,,
10.0937500000,40,-12.7753893176,,,
10.1093750000,40,-13.0747300826,,,
10.1250000000,40,-0.9012709563,,,
10.1406250000,40,-6.3873670414,,,
10.1562500000,40,-12.4299079439,,,
10.1718750000,40,-6.0346311008,,,
10.1875000000,40,-24.1148307648,33024,10.1992187500,0.0000000000
10.2031250000,40,-56.6764556587,,,
10.2187500000,40,-32.2946033922,,,
10.2343750000,40,33.3960292646,,,
10.2500000000,41,45.8431360252,,,
10.2656250000,41,15.0932655201,,,
10.2812500000,41,13.8625283258,,,
10.2968750000,41,21.9339459791,,,
10.3125000000,41,12.7375262266,,,
10.3281250000,41,8.7324301871,,,
10.3437500000,41,8.6695107862,,,
10.3593750000,41,6.0867343222,,,
10.3750000000,41,5.5267092368,,,
10.3906250000,41,8.8771555224,,,
10.4062500000,41,10.5161274573,,,
10.4218750000,41,3.8012289586,,,
10.4375000000,41,1.1783855091,,,
10.4531250000,41,5.0046657147,,,
10.4687500000,41,1.7946639853,,,
10.4843750000,41,-4.3610386633,33024,10.4990234375,0.0000000000
10.5000000000,42,-4.6638698445,,,
10.5156250000,42,-2.8993995033,,,
10.5312500000,42,-5.0523699364,,,
10.5468750000,42,-5.3729322207,,,
10.5625000000,42,-0.0036082357,,,
10.5781250000,42,1.0503772554,,,
10.5937500000,42,-1.2892697225,,,
10.6093750000,42,-1.8984361289,,,
10.6250000000,42,-3.0806679875,,,
10.6406250000,42,-2.8808654446,,,
10.6562500000,42,-2.8276810439,,,
10.6718750000,42,-4.3733326725,,,
10.6875000000,42,-7.4144916305,,,
10.7031250000,42,-9.7390101700,,,
10.7187500000,42,-6.1180091633,,,
10.7343750000,42,-2.9699015953,,,
10.7500000000,43,-3.3411791778,,,
10.7656250000,43,-3.0660600986,,,
10.7812500000,43,-3.2623771721,,,
10.7968750000,43,-3.7276687635,33024,10.7998046875,0.0000000000
10.8125000000,43,-3.7076976133,,,
10.8281250000,43,-0.1252587960,,,
10.8437500000,43,4.1536895417,,,
10.8593750000,43,1.1703665244,,,
10.8750000000,43,-2.8699658463,,,
10.8906250000,43,-2.6990734859,,,
10.9062500000,43,-1.4931650630,,,
10.9218750000,43,-0.9523846503,,,
10.9375000000,43,-1.4030156393,,,
10.9531250000,43,-0.9228820582,,,
10.9687500000,43,-1.5160623289,,,
10.9843750000,43,-1.4171573603,,,
11.0000000000,44,1.8028694253,,,
11.0156250000,44,1.8289900481,,,
11.0312500000,44,0.8281865335,,,
11.0468750000,44,1.7013818385,,,
11.0625000000,44,2.9942010585,,,
11.0781250000,44,4.5596633809,,,
11.0937500000,44,3.1899507329,33024,11.0996093750,0.0000000000
11.1093750000,44,2.9398312744,,,
11.1250000000,44,3.5783257785,,,
11.1406250000,44,2.0423077499,,,
11.1562500000,44,3.1270268970,,,
11.1718750000,44,1.4900471420,,,
11.1875000000,44,-0.8204898531,,,
11.2031250000,44,4.3500505316,,,
11.2187500000,44,2.3101021640,,,
11.2343750000,44,-5.1490671254,,,
11.2500000000,45,9.9026618998,,,
11.2656250000,45,31.1730147659,,,
11.2812500000,45,15.6177732873,,,
11.2968750000,45,-12.4042079102,,,
11.3125000000,45,-8.7178544647,,,
11.3281250000,45,0.7408490529,,,
11.3437500000,45,-6.6386174305,,,
11.3593750000,45,-10.6250285818,,,
11.3750000000,45,-7.5011625178,,,
11.3906250000,45,-4.6520855680,33024,11.3994140625,0.0000000000
11.4062500000,45,-5.4015551981,,,
11.4218750000,45,0.5672873515,,,
11.4375000000,45,20.2298905335,,,
11.4531250000,45,20.4610031506,,,
11.4687500000,45,-8.2223829541,,,
11.4843750000,45,-22.5351231166,,,
11.5000000000,46,-10.4068885228,,,
11.5156250000,46,-3.5013498192,,,
11.5312500000,46,-9.1665467902,,,
11.5468750000,46,-8.5968567550,,,
11.5625000000,46,-3.9268768806,,,
11.5781250000,46,-4.1611423499,,,
11.5937500000,46,-4.1778505563,,,
11.6093750000,46,-2.4626317840,,,
11.6250000000,46,-0.9112673516,,,
11.6406250000,46,-1.4202384878,,,
11.6562500000,46,-2.4364073205,,,
11.6718750000,46,0.7588848360,,,
11.6875000000,46,3.4371184972,33024,11.6992187500,0.0000000000
11.7031250000,46,3.5270788347,,,
11.7187500000,46,3.1295218481,,,
11.7343750000,46,1.8468117601,,,
11.7500000000,47,2.6837879988,,,
11.7656250000,47,0.8719503048,,,
11.7812500000,47,-7.4286847276,,,
11.7968750000,47,-10.4530797908,,,
11.8125000000,47,1.6373412452,,,
11.8281250000,47,15.1669573893,,,
11.8437500000,47,7.9868209992,,,
11.8593750000,47,-3.6217571546,,,
11.8750000000,47,2.3211658607,,,
11.8906250000,47,9.2335309249,,,
11.9062500000,47,6.7705531641,,,
11.9218750000,47,3.1662432604,,,
11.9375000000,47,2.9932832442,,,
11.9531250000,47,3.3951956703,,,
11.9687500000,47,2.9230924026,,,
11.9843750000,47,6.9519505191,33024,11.9990234375,0.0000000000
12.0000000000,48,10.3532371370,,,
12.0156250000,48,10.1072427352,,,
12.0312500000,48,8.8570582211,,,
12.0468750000,48,3.2069063936,,,
12.0625000000,48,1.5796710454,,,
12.0781250000,48,5.3861898524,,,
12.0937500000,48,4.7749114496,,,
12.1093750000,48,2.8993230312,,,
12.1250000000,48,1.7184841695,,,
12.1406250000,48,1.1021532871,,,
12.1562500000,48,-0.2355343435,,,
12.1718750000,48,-4.5454763633,,,
12.1875000000,48,-8.5349705562,,,
12.2031250000,48,-13.2083153840,,,
12.2187500000,48,-16.6809607258,,,
12.2343750000,48,-15.4748738441,,,
12.2500000000,49,-12.6704187493,,,
12.2656250000,49,-9.6239061570,,,
12.2812500000,49,-5.7806888911,,,
12.2968750000,49,-0.3695399109,33024,12.2998046875,0.0000000000
12.3125000000,49,1.1883742769,,,
12.3281250000,49,-1.3198202539,,,
12.3437500000,49,2.0598534245,,,
12.3593750000,49,4.6980570474,,,
12.3750000000,49,1.6432027345,,,
12.3906250000,49,2.3835207232,,,
12.4062500000,49,4.1755671563,,,
12.4218750000,49,2.3837449431,,,
12.4375000000,49,-1.2915636557,,,
12.4531250000,49,-2.9269622292,,,
12.4687500000,49,-1.8663790040,,,
12.4843750000,49,-4.2264177031,,,
12.5000000000,50,-6.1932888840,,,
12.5156250000,50,-4.5299901368,,,
12.5312500000,50,-2.6224972199,,,
12.5468750000,50,0.6603188856,,,
12.5625000000,50,2.1154590063,,,
12.5781250000,50,-2.1861975798,,,
12.5937500000,50,-9.1342896841,33024,12.5996093750,0.0000000000
12.6093750000,50,-8.6141073744,,,
12.6250000000,50,-3.3620209328,,,
12.6406250000,50,-5.8053598179,,,
12.6562500000,50,-5.0027723112,,,
12.6718750000,50,3.6594374826,,,
12.6875000000,50,4.9153673386,,,
12.7031250000,50,2.0757954982,,,
12.7187500000,50,4.1330717965,,,
12.7343750000,50,8.8696558893,,,
12.7500000000,51,10.5832524965,,,
12.7656250000,51,8.0614081589,,,
12.7812500000,51,7.9625070716,,,
12.7968750000,51,10.1624844565,,,
12.8125000000,51,10.0935165949,,,
12.8281250000,51,6.9829020304,,,
12.8437500000,51,3.1533957311,,,
12.8593750000,51,3.1270582754,,,
12.8750000000,51,3.7830622228,,,
12.8906250000,51,3.6779953308,33024,12.8994140625,0.0000000000
12.9062500000,51,2.0716399306,,,
12.9218750000,51,-3.0140106897,,,
12.9375000000,51,-5.1487391649,,,
12.9531250000,51,-5.3893630860,,,
12.9687500000,51,-6.0288985221,,,
12.9843750000,51,-5.0210617436,,,
13.0000000000,52,-5.8572595724,,,
13.0156250000,52,-4.0571324129,,,
13.0312500000,52,0.7311249432,,,
13.0468750000,52,0.4060793972,,,
13.0625000000,52,-2.7149114416,,,
13.0781250000,52,-2.2520284304,,,
13.0937500000,52,1.7996252465,,,
13.1093750000,52,1.2640667543,,,
13.1250000000,52,-1.5613474854,,,
13.1406250000,52,2.4666836166,,,
13.1562500000,52,3.5743473030,,,
13.1718750000,52,0.1697093174,,,
13.1875000000,52,0.6703516594,33024,13.1992187500,0.0000000000
13.2031250000,52,1.9703220953,,,
13.2187500000,52,8.2220426787,,,
13.2343750000,52,19.0819168660,,,
13.2500000000,53,16.0817449355,,,
13.2656250000,53,-3.7479635659,,,
13.2812500000,53,-16.4801864176,,,
13.2968750000,53,-12.1066377254,,,
13.3125000000,53,-8.9314241751,,,
13.3281250000,53,-10.7114308200,,,
13.3437500000,53,-8.7831876062,,,
13.3593750000,53,-7.0537688412,,,
13.3750000000,53,-6.3719549879,,,
13.3906250000,53,-5.1198763991,,,
13.4062500000,53,-4.2662438706,,,
13.4218750000,53,-4.3322321917,,,
13.4375000000,53,-3.6796624402,,,
13.4531250000,53,1.4893261693,,,
13.4687500000,53,4.3441267860,,,
13.4843750000,53,3.0899280126,33024,13.4990234375,0.0000000000
13.5000000000,54,5.4785785302,,,
13.5156250000,54,7.1811507644,,,
13.5312500000,54,5.1828892930,,,
13.5468750000,54,2.4494267676,,,
13.5625000000,54,1.6270680555,,,
13.5781250000,54,3.4222968363,,,
13.5937500000,54,1.6134212427,,,
13.6093750000,54,0.0423776602,,,
13.6250000000,54,2.5429835500,,,
13.6406250000,54,-7.4058028850,,,
13.6562500000,54,-27.6221497914,,,
13.6718750000,54,-19.8438096126,,,
13.6875000000,54,18.1470185875,,,
13.7031250000,54,30.8995251232,,,
13.7187500000,54,14.2642363345,,,
13.7343750000,54,11.4558183250,,,
13.7500000000,55,12.2254623205,,,
13.7656250000,55,3.9618594226,,,
13.7812500000,55,0.9802867791,,,
13.7968750000,55,0.2675153885,33024,13.7998046875,0.0000000000
13.8125000000,55,-1.8463048784,,,
13.8281250000,55,-1.2426347603,,,
13.8437500000,55,15.9796937534,,,
13.8593750000,55,35.1927941918,,,
13.8750000000,55,12.8004942199,,,
13.8906250000,55,-26.2175550103,,,
13.9062500000,55,-26.8745951183,,,
13.9218750000,55,-9.0757093298,,,
13.9375000000,55,-9.5904027742,,,
13.9531250000,55,-13.9163738977,,,
13.9687500000,55,-7.6783898173,,,
13.9843750000,55,-5.3847066541,,,
14.0000000000,56,-9.5814415736,,,
14.0156250000,56,-9.4274050312,,,
14.0312500000,56,-6.4798753427,,,
14.0468750000,56,-4.5347630177,,,
14.0625000000,56,-3.0077781987,,,
14.0781250000,56,-1.8246574907,,,
14.0937500000,56,-1.4010396899,33024,14.0996093750,0.0000000000
14.1093750000,56,-0.6738775437,,,
14.1250000000,56,0.7724779247,,,
14.1406250000,56,-2.8760134523,,,
14.1562500000,56,-1.1079893000,,,
14.1718750000,56,0.3205914515,,,
14.1875000000,56,-28.7099732666,,,
14.2031250000,56,-43.4286882237,,,
14.2187500000,56,1.1142739204,,,
14.2343750000,56,41.0236720528,,,
14.2500000000,57,31.4953134794,,,
14.2656250000,57,14.9356671851,,,
14.2812500000,57,19.3804378834,,,
14.2968750000,57,22.1915399259,,,
14.3125000000,57,13.1415676939,,,
14.3281250000,57,7.3659954452,,,
14.3437500000,57,9.2062565091,,,
14.3593750000,57,11.2737994030,,,
14.3750000000,57,6.4271251298,,,
14.3906250000,57,0.5387723894,33024,14.3994140625,0.0000000000
14.4062500000,57,0.0008958517,,,
14.4218750000,57,-3.7632299552,,,
14.4375000000,57,-7.6554866923,,,
14.4531250000,57,-7.4967394921,,,
14.4687500000,57,-9.9811412511,,,
14.4843750000,57,-8.5839840594,,,
14.5000000000,58,-3.4979024452,,,
14.5156250000,58,-3.0204880249,,,
14.5312500000,58,-4.4085599886,,,
14.5468750000,58,-5.3427754140,,,
14.5625000000,58,-3.5334963650,,,
14.5781250000,58,-3.0862670967,,,
14.5937500000,58,-6.3095368935,,,
14.6093750000,58,-5.2141597421,,,
14.6250000000,58,-2.7737384910,,,
14.6406250000,58,-2.3222858384,,,
14.6562500000,58,-1.0595158612,,,
14.6718750000,58,-0.4523379314,,,
14.6875000000,58,-2.1202908796,33024,14.6992187500,0.0000000000
14.7031250000,58,-4.4222061990,,,
14.7187500000,58,-3.1043393274,,,
14.7343750000,58,-3.2759181274,,,
14.7500000000,59,-4.4527299353,,,
14.7656250000,59,2.6525730305,,,
14.7812500000,59,7.9450923308,,,
14.7968750000,59,4.3165080460,,,
14.8125000000,59,1.2125483539,,,
14.8281250000,59,2.7570013861,,,
14.8437500000,59,3.1709720951,,,
14.8593750000,59,-1.5549112313,,,
14.8750000000,59,-1.9258691600,,,
14.8906250000,59,1.3593287269,,,
14.9062500000,59,-1.4249221294,,,
14.9218750000,59,-2.5382567767,,,
14.9375000000,59,1.3239526489,,,
14.9531250000,59,5.0516072168,,,
14.9687500000,59,6.7132492248,,,
14.9843750000,59,4.5730233427,33024,14.9990234375,0.0000000000
15.0000000000,60,2.8083521134,,,
15.0156250000,60,3.2779735951,,,
15.0312500000,60,3.5127601893,,,
15.0468750000,60,1.8651460718,,,
15.0625000000,60,-0.0146374418,,,
15.0781250000,60,2.1122036581,,,
15.0937500000,60,0.7688093140,,,
15.1093750000,60,-3.8977754543,,,
15.1250000000,60,-2.6377938607,,,
15.1406250000,60,-2.9244867341,,,
15.1562500000,60,-4.7376178781,,,
15.1718750000,60,-1.8577267084,,,
15.1875000000,60,0.0260256147,,,
15.2031250000,60,-1.3397521758,,,
15.2187500000,60,-1.6238577416,,,
15.2343750000,60,2.1290821921,,,
15.2500000000,61,2.7802513968,,,
15.2656250000,61,-1.4990596233,,,
15.2812500000,61,-1.0664771081,,,
15.2968750000,61,1.3206297899,33024,15.2998046875,0.0000000000
15.3125000000,61,1.3848231470,,,
15.3281250000,61,1.2037669873,,,
15.3437500000,61,0.4035638565,,,
15.3593750000,61,0.8040902865,,,
15.3750000000,61,0.9027163582,,,
15.3906250000,61,0.0760647600,,,
15.4062500000,61,-0.4243170247,,,
15.4218750000,61,-0.3458713786,,,
15.4375000000,61,1.4345602633,,,
15.4531250000,61,-0.1440153878,,,
15.4687500000,61,-2.4249375352,,,
15.4843750000,61,-0.6031344934,,,
15.5000000000,62,-1.4819242671,,,
15.5156250000,62,-5.1034358546,,,
15.5312500000,62,-6.4870946959,,,
15.5468750000,62,-2.7422414469,,,
15.5625000000,62,1.0168447813,,,
15.5781250000,62,-2.8181597778,,,
15.5937500000,62,-4.0893212085,33024,15.5996093750,0.0000000000
15.6093750000,62,1.5480423691,,,
15.6250000000,62,4.3439700729,,,
15.6406250000,62,3.4431680879,,,
15.6562500000,62,2.6345940555,,,
15.6718750000,62,4.3637896865,,,
15.6875000000,62,4.7198255063,,,
15.7031250000,62,2.8445225829,,,
15.7187500000,62,5.5440445453,,,
15.7343750000,62,9.1837366150,,,
15.7500000000,63,10.4502218909,,,
15.7656250000,63,13.3259444897,,,
15.7812500000,63,13.2583527446,,,
15.7968750000,63,1.8860555902,,,
15.8125000000,63,-13.9666305121,,,
15.8281250000,63,-18.2864490175,,,
15.8437500000,63,-14.1879774707,,,
15.8593750000,63,-13.0492229847,,,
15.8750000000,63,-11.9472604132,,,
15.8906250000,63,-10.3255781614,33024,15.8994140625,0.0000000000
15.9062500000,63,-8.5668206640,,,
15.9218750000,63,-4.6697799178,,,
15.9375000000,63,-2.1353121575,,,
15.9531250000,63,-0.6737157679,,,
15.9687500000,63,-1.7543444615,,,
15.9843750000,63,-2.7852617338,,,
16.0000000000,64,0.8356590800,,,
16.0156250000,64,2.4888829731,,,
16.0312500000,64,2.2022274329,,,
16.0468750000,64,3.1495489026,,,
16.0625000000,64,4.1835318310,,,
16.0781250000,64,4.3576077650,,,
16.0937500000,64,2.5034180051,,,
16.1093750000,64,2.7167403776,,,
16.1250000000,64,3.9860847034,,,
16.1406250000,64,3.9607877502,,,
16.1562500000,64,4.4490077293,,,
16.1718750000,64,3.2144219611,,,
16.1875000000,64,2.8620117523,33024,16.1992187500,0.0000000000
16.2031250000,64,3.7970997974,,,
16.2187500000,64,3.3150707672,,,
16.2343750000,64,1.7707907910,,,
16.2500000000,65,-1.2534987064,,,
16.2656250000,65,0.7204154436,,,
16.2812500000,65,4.7832767522,,,
16.2968750000,65,2.2519904801,,,
16.3125000000,65,1.6686162148,,,
16.3281250000,65,4.5417756028,,,
16.3437500000,65,3.6390176897,,,
16.3593750000,65,0.6918579884,,,
16.3750000000,65,-0.0550123903,,,
16.3906250000,65,1.7409976775,,,
16.4062500000,65,0.3811490915,,,
16.4218750000,65,-2.8649765948,,,
16.4375000000,65,-3.6425969143,,,
16.4531250000,65,-2.4548470508,,,
16.4687500000,65,1.9151896129,,,
16.4843750000,65,2.4942248849,33024,16.4990234375,0.0000000000
16.5000000000,66,-2.1367521954,,,
16.5156250000,66,-3.0818284084,,,
16.5312500000,66,-0.7018315509,,,
16.5468750000,66,0.7540871450,,,
16.5625000000,66,-1.2154881873,,,
16.5781250000,66,-1.5500060679,,,
16.5937500000,66,1.0837641529,,,
16.6093750000,66,-2.5991899525,,,
16.6250000000,66,-6.6886259144,,,
16.6406250000,66,-4.3115258114,,,
16.6562500000,66,-1.3759888054,,,
16.6718750000,66,-1.8113477384,,,
16.6875000000,66,-4.6625717545,,,
16.7031250000,66,-2.5401503915,,,
16.7187500000,66,2.0904282714,,,
16.7343750000,66,1.7418607545,,,
16.7500000000,67,0.5975764230,,,
16.7656250000,67,0.1530733924,,,
16.7812500000,67,0.7582712098,,,
16.7968750000,67,1.0287632471,33024,16.7998046875,0.0000000000
16.8125000000,67,-1.1284167781,,,
16.8281250000,67,-1.2078587499,,,
16.8437500000,67,-0.9469899737,,,
16.8593750000,67,-1.7471218561,,,
16.8750000000,67,-2.6200197513,,,
16.8906250000,67,-3.5646085575,,,
16.9062500000,67,-0.0282557947,,,
16.9218750000,67,3.2563736460,,,
16.9375000000,67,1.8734802038,,,
16.9531250000,67,-0.2650909145,,,
16.9687500000,67,-0.2716352435,,,
16.9843750000,67,2.8550834926,,,
17.0000000000,68,2.3935792502,,,
17.0156250000,68,-0.8115384586,,,
17.0312500000,68,-0.4234555296,,,
17.0468750000,68,-0.1463899994,,,
17.0625000000,68,0.4456109916,,,
17.0781250000,68,0.2347317911,,,
17.0937500000,68,-2.4176320521,33024,17.0996093750,0.0000000000
17.1093750000,68,-2.8800911232,,,
17.1250000000,68,-1.5300421622,,,
17.1406250000,68,0.8262018102,,,
17.1562500000,68,1.3784716267,,,
17.1718750000,68,0.9165688725,,,
17.1875000000,68,3.5582831736,,,
17.2031250000,68,3.5017637384,,,
17.2187500000,68,1.2189160459,,,
17.2343750000,68,0.8310210624,,,
17.2500000000,69,0.7561409162,,,
17.2656250000,69,0.8642071119,,,
17.2812500000,69,-0.1356379859,,,
17.2968750000,69,0.3069933455,,,
17.3125000000,69,0.3717407417,,,
17.3281250000,69,-2.8456676161,,,
17.3437500000,69,-1.9959647433,,,
17.3593750000,69,0.9775609515,,,
17.3750000000,69,0.6342038642,,,
17.3906250000,69,-1.4313885544,33024,17.3994140625,0.0000000000
17.4062500000,69,-2.1764236003,,,
17.4218750000,69,0.3599636448,,,
17.4375000000,69,1.2291002476,,,
17.4531250000,69,2.2019941552,,,
17.4687500000,69,4.8078489152,,,
17.4843750000,69,3.4436014621,,,
17.5000000000,70,2.5162549391,,,
17.5156250000,70,2.4918987300,,,
17.5312500000,70,0.6791962582,,,
17.5468750000,70,-1.5390348761,,,
17.5625000000,70,-3.7173115046,,,
17.5781250000,70,-1.1740979435,,,
17.5937500000,70,0.9430033287,,,
17.6093750000,70,-1.0010844854,,,
17.6250000000,70,0.3834598461,,,
17.6406250000,70,2.2657535755,,,
17.6562500000,70,0.8637060735,,,
17.6718750000,70,-1.4943456078,,,
17.6875000000,70,-1.6043162353,33024,17.6992187500,0.0000000000
17.7031250000,70,-0.2385267341,,,
17.7187500000,70,-1.7445319919,,,
17.7343750000,70,-2.5205533513,,,
17.7500000000,71,-2.1200165935,,,
17.7656250000,71,-1.7417562678,,,
17.7812500000,71,0.0968341523,,,
17.7968750000,71,-0.6427728127,,,
17.8125000000,71,1.0728724178,,,
17.8281250000,71,4.8372150235,,,
17.8437500000,71,1.1747303702,,,
17.8593750000,71,-2.8223718954,,,
17.8750000000,71,-2.3263554784,,,
17.8906250000,71,-1.1793323985,,,
17.9062500000,71,-1.4585778072,,,
17.9218750000,71,-2.5006475954,,,
17.9375000000,71,-1.2620914353,,,
17.9531250000,71,-1.3089983188,,,
17.9687500000,71,-2.2523336856,,,
17.9843750000,71,-1.4415302537,33024,17.9990234375,0.0000000000
18.0000000000,72,-1.8339619547,,,
18.0156250000,72,-4.3543597845,,,
18.0312500000,72,-4.0102189390,,,
18.0468750000,72,2.4370032856,,,
18.0625000000,72,-11.4518645338,,,
18.0781250000,72,-36.9424067092,,,
18.0937500000,72,-14.2472454343,,,
18.1093750000,72,27.3143836873,,,
18.1250000000,72,24.8113469525,,,
18.1406250000,72,11.3922799841,,,
18.1562500000,72,16.8409435674,,,
18.1718750000,72,16.3878061164,,,
18.1875000000,72,7.4718097918,,,
18.2031250000,72,5.9417744026,,,
18.2187500000,72,10.1976572802,,,
18.2343750000,72,9.3019455767,,,
18.2500000000,73,1.7707087577,,,
18.2656250000,73,10.9485510104,,,
18.2812500000,73,35.7238603603,,,
18.2968750000,73,23.0484826620,33024,18.2998046875,0.0000000000
18.3125000000,73,-24.1089747715,,,
18.3281250000,73,-36.2754602670,,,
18.3437500000,73,-17.1456635440,,,
18.3593750000,73,-15.2642112788,,,
18.3750000000,73,-19.9330867549,,,
18.3906250000,73,-14.7663436928,,,
18.4062500000,73,-10.4455677042,,,
18.4218750000,73,-8.5987415653,,,
18.4375000000,73,-5.2545216470,,,
18.4531250000,73,-0.0124734594,,,
18.4687500000,73,1.0754142447,,,
18.4843750000,73,-0.6334411507,,,
18.5000000000,74,0.5329969441,,,
18.5156250000,74,-1.2271577616,,,
18.5312500000,74,-4.9490466942,,,
18.5468750000,74,-5.5894390484,,,
18.5625000000,74,-4.0175541887,,,
18.5781250000,74,-1.2144170100,,,
18.5937500000,74,1.6627854531,33024,18.5996093750,0.0000000000
18.6093750000,74,3.6116273036,,,
18.6250000000,74,2.2055877373,,,
18.6406250000,74,3.0628989518,,,
18.6562500000,74,8.9047034234,,,
18.6718750000,74,9.8826749834,,,
18.6875000000,74,8.4514259533,,,
18.7031250000,74,8.1211417821,,,
18.7187500000,74,5.4507085238,,,
18.7343750000,74,2.6193163428,,,
18.7500000000,75,-0.7962792728,,,
18.7656250000,75,-3.0809694951,,,
18.7812500000,75,-2.4395694089,,,
18.7968750000,75,-0.7594011922,,,
18.8125000000,75,-1.5235981853,,,
18.8281250000,75,-6.7497581685,,,
18.8437500000,75,-3.9876981305,,,
18.8593750000,75,7.7109784618,,,
18.8750000000,75,10.9338022743,,,
18.8906250000,75,5.6877699665,33024,18.8994140625,0.0000000000
18.9062500000,75,3.1955880952,,,
18.9218750000,75,7.1761826220,,,
18.9375000000,75,9.7762276319,,,
18.9531250000,75,5.0477992420,,,
18.9687500000,75,-0.2082795701,,,
18.9843750000,75,-3.7943165914,,,
19.0000000000,76,-5.8470926366,,,
19.0156250000,76,-6.5277910972,,,
19.0312500000,76,-7.4073070353,,,
19.0468750000,76,-4.8737676157,,,
19.0625000000,76,-2.7734314975,,,
19.0781250000,76,-2.6282965682,,,
19.0937500000,76,0.3867105011,,,
19.1093750000,76,3.3826239603,,,
19.1250000000,76,5.4693890354,,,
19.1406250000,76,5.1637250645,,,
19.1562500000,76,2.6983303794,,,
19.1718750000,76,1.5264108983,,,
19.1875000000,76,-0.6677523612,33024,19.1992187500,0.0000000000
19.2031250000,76,-1.2766115514,,,
19.2187500000,76,-1.3646619219,,,
19.2343750000,76,-4.4728044522,,,
19.2500000000,77,-6.5946537737,,,
19.2656250000,77,-7.2797479981,,,
19.2812500000,77,-6.9629701947,,,
19.2968750000,77,-6.7644183005,,,
19.3125000000,77,-3.4094665792,,,
19.3281250000,77,4.0163096344,,,
19.3437500000,77,3.4275087420,,,
19.3593750000,77,-0.4911962585,,,
19.3750000000,77,3.7650469051,,,
19.3906250000,77,8.7391639160,,,
19.4062500000,77,6.4634623603,,,
19.4218750000,77,-1.6526945971,,,
19.4375000000,77,-5.7965076408,,,
19.4531250000,77,-3.3028479064,,,
19.4687500000,77,-2.9098854902,,,
19.4843750000,77,-5.5311131625,33024,19.4990234375,0.0000000000
19.5000000000,78,-7.5371126079,,,
19.5156250000,78,-4.0439030443,,,
19.5312500000,78,2.8985976379,,,
19.5468750000,78,4.2969840947,,,
19.5625000000,78,2.8266720122,,,
19.5781250000,78,1.8100704103,,,
19.5937500000,78,2.1786755958,,,
19.6093750000,78,4.2209660326,,,
19.6250000000,78,3.9602068413,,,
19.6406250000,78,3.9910002430,,,
19.6562500000,78,2.4032468572,,,
19.6718750000,78,-1.5509839795,,,
19.6875000000,78,-1.4722950905,,,
19.7031250000,78,-1.2782722003,,,
19.7187500000,78,-3.7487722049,,,
19.7343750000,78,-5.5273484024,,,
19.7500000000,79,-3.0935052011,,,
19.7656250000,79,0.5215230923,,,
19.7812500000,79,-0.8143568619,,,
19.7968750000,79,0.4831677443,33024,19.7998046875,0.0000000000
19.8125000000,79,5.3874985810,,,
19.8281250000,79,6.7753408646,,,
19.8437500000,79,5.9911961186,,,
19.8593750000,79,2.2051856009,,,
19.8750000000,79,-0.4337165243,,,
19.8906250000,79,1.2443759882,,,
19.9062500000,79,2.0009758433,,,
19.9218750000,79,0.6288114047,,,
19.9375000000,79,-3.9120641200,,,
19.9531250000,79,-6.5454048131,,,
19.9687500000,79,-3.5646682891,,,
19.9843750000,79,-0.8720591773,,,
20.0000000000,80,0.1319326111,,,
20.0156250000,80,-1.2416961033,,,
20.0312500000,80,-1.0609104944,,,
20.0468750000,80,4.0153974025,,,
20.0625000000,80,5.7523265630,,,
20.0781250000,80,2.1498486867,,,
20.0937500000,80,-1.2987401767,33024,20.0996093750,0.0000000000
20.1093750000,80,-0.5588177282,,,
20.1250000000,80,0.4726362388,,,
20.1406250000,80,-3.0022221128,,,
20.1562500000,80,-3.5012910253,,,
20.1718750000,80,-1.4271724359,,,
20.1875000000,80,-1.9812873706,,,
20.2031250000,80,-2.4834908108,,,
20.2187500000,80,-2.9813386841,,,
20.2343750000,80,-0.4177239616,,,
20.2500000000,81,3.3759876362,,,
20.2656250000,81,3.5944942944,,,
20.2812500000,81,3.7737388543,,,
20.2968750000,81,3.0066156951,,,
20.3125000000,81,0.3686134926,,,
20.3281250000,81,-1.4995727819,,,
20.3437500000,81,0.1154405461,,,
20.3593750000,81,2.8979937471,,,
20.3750000000,81,-0.5532350962,,,
20.3906250000,81,-3.7984475844,33024,20.3994140625,0.0000000000
20.4062500000,81,-1.9281259614,,,
20.4218750000,81,-1.3214110872,,,
20.4375000000,81,-1.4819097547,,,
20.4531250000,81,-1.2264665889,,,
20.4687500000,81,0.6114213973,,,
20.4843750000,81,1.2249027205,,,
20.5000000000,82,-0.8569530652,,,
20.5156250000,82,1.7816111608,,,
20.5312500000,82,3.5192659264,,,
20.5468750000,82,0.7257676530,,,
20.5625000000,82,0.4868204936,,,
20.5781250000,82,0.9065077644,,,
20.5937500000,82,-0.5260270352,,,
20.6093750000,82,-3.5949389760,,,
20.6250000000,82,-3.8170457723,,,
20.6406250000,82,0.7049449696,,,
20.6562500000,82,2.5044772699,,,
20.6718750000,82,1.4849777794,,,
20.6875000000,82,-0.1947590516,33024,20.6992187500,0.0000000000
20.7031250000,82,-1.2099624069,,,
20.7187500000,82,0.0060009419,,,
20.7343750000,82,-0.3747430264,,,
20.7500000000,83,-1.0380093681,,,
20.7656250000,83,-0.7570770313,,,
20.7812500000,83,-0.0918858245,,,
20.7968750000,83,0.6610446979,,,
20.8125000000,83,-1.4857149335,,,
20.8281250000,83,-2.2750255040,,,
20.8437500000,83,-0.8908428577,,,
20.8593750000,83,-0.1499789985,,,
20.8750000000,83,0.3614797996,,,
20.8906250000,83,-1.4189606742,,,
20.9062500000,83,0.1114921245,,,
20.9218750000,83,3.6193265801,,,
20.9375000000,83,1.8225219282,,,
20.9531250000,83,2.6977635322,,,
20.9687500000,83,5.4306484652,,,
20.9843750000,83,3.0957980384,33024,20.9990234375,0.0000000000
21.0000000000,84,0.4132438386,,,
21.0156250000,84,0.5114444785,,,
21.0312500000,84,-0.5779651755,,,
21.0468750000,84,-5.5385956480,,,
21.0625000000,84,-4.7447111405,,,
21.0781250000,84,-4.4426841591,,,
21.0937500000,84,-20.3472767653,,,
21.1093750000,84,-26.0018505790,,,
21.1250000000,84,-0.5465798239,,,
21.1406250000,84,24.4898903557,,,
21.1562500000,84,21.5285410839,,,
21.1718750000,84,10.0585174897,,,
21.1875000000,84,12.0944845156,,,
21.2031250000,84,11.4111640207,,,
21.2187500000,84,0.9979988574,,,
21.2343750000,84,-5.2850960096,,,
21.2500000000,85,-7.8782734820,,,
21.2656250000,85,-8.9720656131,,,
21.2812500000,85,-7.7361247242,,,
21.2968750000,85,-4.7216404563,33024,21.2998046875,0.0000000000
21.3125000000,85,-2.3591971648,,,
21.3281250000,85,-2.0634933837,,,
21.3437500000,85,3.7436443367,,,
21.3593750000,85,8.9091177208,,,
21.3750000000,85,7.5156429804,,,
21.3906250000,85,8.7251977833,,,
21.4062500000,85,8.3858111117,,,
21.4218750000,85,4.5360610761,,,
21.4375000000,85,0.9003942835,,,
21.4531250000,85,-3.4725783615,,,
21.4687500000,85,-4.7272203084,,,
21.4843750000,85,-4.7718595144,,,
21.5000000000,86,-4.8703705303,,,
21.5156250000,86,-1.8802117226,,,
21.5312500000,86,-0.0447659236,,,
21.5468750000,86,-3.2474468754,,,
21.5625000000,86,-6.1960252018,,,
21.5781250000,86,-1.7884983162,,,
21.5937500000,86,1.6665970320,33024,21.5996093750,0.0000000000
21.6093750000,86,-1.6687663563,,,
21.6250000000,86,-0.4553513137,,,
21.6406250000,86,3.0273143456,,,
21.6562500000,86,1.3841336937,,,
21.6718750000,86,-1.1652426652,,,
21.6875000000,86,-2.3627604520,,,
21.7031250000,86,-1.2536821480,,,
21.7187500000,86,-1.2166516139,,,
21.7343750000,86,-1.9481497271,,,
21.7500000000,87,-0.4040955887,,,
21.7656250000,87,-2.0793222732,,,
21.7812500000,87,-5.1863405851,,,
21.7968750000,87,-6.0055466462,,,
21.8125000000,87,-6.7051703606,,,
21.8281250000,87,-7.3030421987,,,
21.8437500000,87,-5.4434901782,,,
21.8593750000,87,1.7399743447,,,
21.8750000000,87,5.6744786010,,,
21.8906250000,87,3.4088280898,33024,21.8994140625,0.0000000000
21.9062500000,87,6.5361738990,,,
21.9218750000,87,13.4298440601,,,
21.9375000000,87,16.6724242452,,,
21.9531250000,87,11.1570735326,,,
21.9687500000,87,-3.2575882851,,,
21.9843750000,87,-10.0943715436,,,
22.0000000000,88,-4.0008103517,,,
22.0156250000,88,0.4669111669,,,
22.0312500000,88,-2.5035978078,,,
22.0468750000,88,-4.6764535466,,,
22.0625000000,88,-2.2048019149,,,
22.0781250000,88,-2.7409523945,,,
22.0937500000,88,-4.9661161251,,,
22.1093750000,88,-3.0715912204,,,
22.1250000000,88,-1.5270739063,,,
22.1406250000,88,-1.8691535069,,,
22.1562500000,88,-2.4783328759,,,
22.1718750000,88,-0.6394836221,,,
22.1875000000,88,2.4697954092,33024,22.1992187500,0.0000000000
22.2031250000,88,2.5809207768,,,
22.2187500000,88,3.6240279910,,,
22.2343750000,88,3.4506408425,,,
22.2500000000,89,0.9902237785,,,
22.2656250000,89,2.8731336005,,,
22.2812500000,89,3.5397536033,,,
22.2968750000,89,-0.6626827352,,,
22.3125000000,89,-2.4544671410,,,
22.3281250000,89,0.8459020470,,,
22.3437500000,89,2.2854852724,,,
22.3593750000,89,-1.0002185852,,,
22.3750000000,89,0.2075655339,,,
22.3906250000,89,2.9183462953,,,
22.4062500000,89,1.3750759823,,,
22.4218750000,89,1.4844325809,,,
22.4375000000,89,1.5327152795,,,
22.4531250000,89,2.8924376937,,,
22.4687500000,89,4.9209272489,,,
22.4843750000,89,0.9645573296,33024,22.4990234375,0.0000000000
22.5000000000,90,-1.3094563398,,,
22.5156250000,90,2.2857061521,,,
22.5312500000,90,4.7781451043,,,
22.5468750000,90,1.3220064644,,,
22.5625000000,90,-3.9872283551,,,
22.5781250000,90,-2.4101256477,,,
22.5937500000,90,0.8844338748,,,
22.6093750000,90,-0.1376664260,,,
22.6250000000,90,-2.6757550016,,,
22.6406250000,90,-4.7761680349,,,
22.6562500000,90,-2.7497472757,,,
22.6718750000,90,-0.4111966126,,,
22.6875000000,90,-0.1413682397,,,
22.7031250000,90,2.0649891614,,,
22.7187500000,90,2.9418764931,,,
22.7343750000,90,1.1915481853,,,
22.7500000000,91,-1.8137825097,,,
22.7656250000,91,-2.4345351548,,,
22.7812500000,91,0.0824820154,,,
22.7968750000,91,-1.0655876595,33024,22.7998046875,0.0000000000
22.8125000000,91,-2.9555857375,,,
22.8281250000,91,-1.2024339922,,,
22.8437500000,91,1.9003453477,,,
22.8593750000,91,1.7785794804,,,
22.8750000000,91,-3.9590263152,,,
22.8906250000,91,-4.7584152630,,,
22.9062500000,91,0.6293291359,,,
22.9218750000,91,1.8033848662,,,
22.9375000000,91,-1.3592897597,,,
22.9531250000,91,-5.4373066110,,,
22.9687500000,91,-4.2334490100,,,
22.9843750000,91,0.5672372809,,,
23.0000000000,92,1.2908367344,,,
23.0156250000,92,0.8549655241,,,
23.0312500000,92,0.3568594124,,,
23.0468750000,92,1.6479775453,,,
23.0625000000,92,4.0467781325,,,
23.0781250000,92,0.9576464233,,,
23.0937500000,92,-1.4543590376,33024,23.0996093750,0.0000000000
23.1093750000,92,0.5037733234,,,
23.1250000000,92,0.9310267030,,,
23.1406250000,92,-0.3292015469,,,
23.1562500000,92,0.1414610154,,,
23.1718750000,92,1.7300010377,,,
23.1875000000,92,-0.2384497632,,,
23.2031250000,92,-0.9415221958,,,
23.2187500000,92,1.6852001981,,,
23.2343750000,92,0.2070453796,,,
23.2500000000,93,-0.4592464923,,,
23.2656250000,93,0.4906248726,,,
23.2812500000,93,-0.7020571516,,,
23.2968750000,93,0.3872850075,,,
23.3125000000,93,0.7666727614,,,
23.3281250000,93,-0.7489809378,,,
23.3437500000,93,-1.3096877946,,,
23.3593750000,93,-0.4878197617,,,
23.3750000000,93,0.8834435970,,,
23.3906250000,93,-0.6286229561,33024,23.3994140625,0.0000000000
23.4062500000,93,-2.3004976116,,,
23.4218750000,93,-3.1150145499,,,
23.4375000000,93,-1.8856598500,,,
23.4531250000,93,2.9096360949,,,
23.4687500000,93,3.2292399944,,,
23.4843750000,93,2.1168452857,,,
23.5000000000,94,3.7509449528,,,
23.5156250000,94,1.7325954444,,,
23.5312500000,94,-1.6043643605,,,
23.5468750000,94,-2.6040892267,,,
23.5625000000,94,-0.3747586285,,,
23.5781250000,94,1.9725585157,,,
23.5937500000,94,-0.0382172008,,,
23.6093750000,94,-3.3646405848,,,
23.6250000000,94,-5.5170411484,,,
23.6406250000,94,-2.7576099136,,,
23.6562500000,94,3.3621490032,,,
23.6718750000,94,6.0672308691,,,
23.6875000000,94,7.1893068557,33024,23.6992187500,0.0000000000
23.7031250000,94,4.0326152336,,,
23.7187500000,94,-0.6082200185,,,
23.7343750000,94,0.5803165824,,,
23.7500000000,95,-0.6444730948,,,
23.7656250000,95,-3.7122556255,,,
23.7812500000,95,-2.0871424192,,,
23.7968750000,95,-0.4554443721,,,
23.8125000000,95,-1.2611424090,,,
23.8281250000,95,-1.9344111592,,,
23.8437500000,95,-0.4607937312,,,
23.8593750000,95,-0.9703392058,,,
23.8750000000,95,-2.0875397152,,,
23.8906250000,95,1.3192456463,,,
23.9062500000,95,2.5891280869,,,
23.9218750000,95,-0.2564479290,,,
23.9375000000,95,-2.4647391832,,,
23.9531250000,95,-0.5940506683,,,
23.9687500000,95,3.2771504538,,,
23.9843750000,95,1.3840458620,33024,23.9990234375,0.0000000000
24.0000000000,96,-0.3911867189,,,
24.0156250000,96,1.3697995108,,,
24.0312500000,96,0.6161947033,,,
24.0468750000,96,-0.3803470411,,,
24.0625000000,96,-1.6253180303,,,
24.0781250000,96,-2.2310430960,,,
24.0937500000,96,-4.0781086651,,,
24.1093750000,96,-10.0745649332,,,
24.1250000000,96,-8.5083730557,,,
24.1406250000,96,1.2902365446,,,
24.1562500000,96,7.9912343644,,,
24.1718750000,96,8.3193647808,,,
24.1875000000,96,7.2306084993,,,
24.2031250000,96,8.4979914505,,,
24.2187500000,96,4.2408228899,,,
24.2343750000,96,-2.8371207854,,,
24.2500000000,97,-4.5259064881,,,
24.2656250000,97,-3.9103245606,,,
24.2812500000,97,0.1944084240,,,
24.2968750000,97,0.0853592452,33024,24.2998046875,0.0000000000
24.3125000000,97,-7.6647473195,,,
24.3281250000,97,-8.4191980482,,,
24.3437500000,97,-1.9668112917,,,
24.3593750000,97,1.2088513533,,,
24.3750000000,97,0.3540872498,,,
24.3906250000,97,1.5577189999,,,
24.4062500000,97,4.0815540730,,,
24.4218750000,97,3.1038999719,,,
24.4375000000,97,3.1786601088,,,
24.4531250000,97,4.2936165421,,,
24.4687500000,97,4.0516466376,,,
24.4843750000,97,4.4618883025,,,
24.5000000000,98,2.5375879943,,,
24.5156250000,98,0.4520032596,,,
24.5312500000,98,-0.4110839186,,,
24.5468750000,98,-2.2343283268,,,
24.5625000000,98,-1.6125932235,,,
24.5781250000,98,-0.8830780221,,,
24.5937500000,98,-1.0924213589,33024,24.5996093750,0.0000000000
24.6093750000,98,-0.5306568635,,,
24.6250000000,98,0.4665996392,,,
24.6406250000,98,4.0381598139,,,
24.6562500000,98,4.3129317483,,,
24.6718750000,98,0.1365497041,,,
24.6875000000,98,-1.6945785056,,,
24.7031250000,98,-1.9862673295,,,
24.7187500000,98,-1.2697490064,,,
24.7343750000,98,-0.2257821335,,,
24.7500000000,99,1.4247218211,,,
24.7656250000,99,1.5569266926,,,
24.7812500000,99,-2.8275187089,,,
24.7968750000,99,-2.8739224475,,,
24.8125000000,99,-0.5516934657,,,
24.8281250000,99,-2.6616780610,,,
24.8437500000,99,-2.5215303817,,,
24.8593750000,99,0.1663080791,,,
24.8750000000,99,3.2608745124,,,
24.8906250000,99,9.9462053552,33024,24.8994140625,0.0000000000
24.9062500000,99,16.4930221571,,,
24.9218750000,99,10.7327578323,,,
24.9375000000,99,-7.2144213885,,,
24.9531250000,99,-17.6658927822,,,
24.9687500000,99,-16.7022323542,,,
24.9843750000,99,-15.7744063984,,,
25.0000000000,100,-13.8799592532,,,
25.0156250000,100,-11.5970924474,,,
25.0312500000,100,-9.9504343422,,,
25.0468750000,100,-5.4018226163,,,
25.0625000000,100,-1.6696388745,,,
25.0781250000,100,-1.2626045556,,,
25.0937500000,100,-2.0531084147,,,
25.1093750000,100,-0.6174951542,,,
25.1250000000,100,1.5927146182,,,
25.1406250000,100,2.4763035480,,,
25.1562500000,100,5.5186848971,,,
25.1718750000,100,7.6173729677,,,
25.1875000000,100,7.1346075558,33024,25.1992187500,0.0000000000
25.2031250000,100,5.9009760125,,,
25.2187500000,100,4.3105843298,,,
25.2343750000,100,5.3059361836,,,
25.2500000000,101,4.4555074063,,,
25.2656250000,101,2.0154549223,,,
25.2812500000,101,4.4852862601,,,
25.2968750000,101,3.6284132076,,,
25.3125000000,101,-7.7235852421,,,
25.3281250000,101,-14.5716948931,,,
25.3437500000,101,1.5682758601,,,
25.3593750000,101,20.3259565200,,,
25.3750000000,101,14.6511279189,,,
25.3906250000,101,6.0202579381,,,
25.4062500000,101,7.5436266400,,,
25.4218750000,101,6.5265871992,,,
25.4375000000,101,6.9376931028,,,
25.4531250000,101,7.9209898030,,,
25.4687500000,101,3.6040767104,,,
25.4843750000,101,-2.5158777599,33024,25.4990234375,0.0000000000
25.5000000000,102,-2.8000895541,,,
25.5156250000,102,1.9596673048,,,
25.5312500000,102,-0.8276234005,,,
25.5468750000,102,-5.3466365790,,,
25.5625000000,102,-2.7457901212,,,
25.5781250000,102,-1.5370958218,,,
25.5937500000,102,-3.2372813641,,,
25.6093750000,102,-4.5066706909,,,
25.6250000000,102,-3.0968816755,,,
25.6406250000,102,0.6016655095,,,
25.6562500000,102,2.8552190400,,,
25.6718750000,102,2.9849539170,,,
25.6875000000,102,-0.0628444273,,,
25.7031250000,102,-1.0119842254,,,
25.7187500000,102,1.5811963567,,,
25.7343750000,102,-0.6428032657,,,
25.7500000000,103,-4.4165925564,,,
25.7656250000,103,-3.8988846768,,,
25.7812500000,103,-0.7695124211,,,
25.7968750000,103,-1.6646869313,33024,25.7998046875,0.0000000000
25.8125000000,103,-7.8362365261,,,
25.8281250000,103,-8.1113099832,,,
25.8437500000,103,-3.8326982482,,,
25.8593750000,103,-3.8702215120,,,
25.8750000000,103,-5.9830003374,,,
25.8906250000,103,-6.7562157793,,,
25.9062500000,103,-3.8618043831,,,
25.9218750000,103,-1.4192018913,,,
25.9375000000,103,-2.8862248414,,,
25.9531250000,103,-4.1437175989,,,
25.9687500000,103,-4.6441794522,,,
25.9843750000,103,-3.7307684757,,,
26.0000000000,104,-2.8172126786,,,
26.0156250000,104,-0.8184517357,,,
26.0312500000,104,4.2487171025,,,
26.0468750000,104,4.3847547801,,,
26.0625000000,104,1.7602183594,,,
26.0781250000,104,2.3166612150,,,
26.0937500000,104,4.0931571966,33024,26.0996093750,0.0000000000
26.1093750000,104,5.9038499361,,,
26.1250000000,104,3.5060945737,,,
26.1406250000,104,2.7225179675,,,
26.1562500000,104,2.5933960035,,,
26.1718750000,104,-9.6929352639,,,
26.1875000000,104,-10.1217837461,,,
26.2031250000,104,20.3874616086,,,
26.2187500000,104,38.7210978950,,,
26.2343750000,104,14.5046555445,,,
26.2500000000,105,-10.7240939730,,,
26.2656250000,105,-6.5202533489,,,
26.2812500000,105,-2.9488957011,,,
26.2968750000,105,-10.0203877911,,,
26.3125000000,105,-9.7027539290,,,
26.3281250000,105,-7.1129748405,,,
26.3437500000,105,-6.2436792042,,,
26.3593750000,105,-1.2947748210,,,
26.3750000000,105,-0.5478233217,,,
26.3906250000,105,8.2438232452,33024,26.3994140625,0.0000000000
26.4062500000,105,43.7148331026,,,
26.4218750000,105,62.6497666558,,,
26.4375000000,105,27.6687837749,,,
26.4531250000,105,-23.3911202142,,,
26.4687500000,105,-39.4006351929,,,
26.4843750000,105,-26.2723946957,,,
26.5000000000,106,-21.3148370866,,,
26.5156250000,106,-23.0398715395,,,
26.5312500000,106,-18.7459845609,,,
26.5468750000,106,-13.9908069478,,,
26.5625000000,106,-11.3060102316,,,
26.5781250000,106,-8.9226834189,,,
26.5937500000,106,-6.7134277025,,,
26.6093750000,106,-6.9647870549,,,
26.6250000000,106,-4.6595575354,,,
26.6406250000,106,-1.4402319891,,,
26.6562500000,106,-2.1276507482,,,
26.6718750000,106,-0.1105450662,,,
26.6875000000,106,5.1540536165,33024,26.6992187500,0.0000000000
26.7031250000,106,9.3844477871,,,
26.7187500000,106,8.6395633162,,,
26.7343750000,106,6.3135350347,,,
26.7500000000,107,7.8923297925,,,
26.7656250000,107,9.1437372741,,,
26.7812500000,107,11.3396754815,,,
26.7968750000,107,11.9355299072,,,
26.8125000000,107,8.6364498724,,,
26.8281250000,107,7.3519161726,,,
26.8437500000,107,3.8487840528,,,
26.8593750000,107,-0.3251812728,,,
26.8750000000,107,-0.8826013794,,,
26.8906250000,107,1.4780155572,,,
26.9062500000,107,6.8154584527,,,
26.9218750000,107,6.2071516753,,,
26.9375000000,107,2.7093511347,,,
26.9531250000,107,4.5869175125,,,
26.9687500000,107,8.4024930814,,,
26.9843750000,107,9.4244993294,33024,26.9990234375,0.0000000000
27.0000000000,108,4.2734031032,,,
27.0156250000,108,1.4949243188,,,
27.0312500000,108,1.1091840999,,,
27.0468750000,108,-1.9607838451,,,
27.0625000000,108,-4.2753432809,,,
27.0781250000,108,-7.3563230349,,,
27.0937500000,108,-3.5737130467,,,
27.1093750000,108,-15.0720655629,,,
27.1250000000,108,-45.7258976093,,,
27.1406250000,108,-27.2791618082,,,
27.1562500000,108,25.7623503382,,,
27.1718750000,108,27.6125867629,,,
27.1875000000,108,5.1900939998,,,
27.2031250000,108,27.7708977234,,,
27.2187500000,108,54.9127719746,,,
27.2343750000,108,28.4092455695,,,
27.2500000000,109,-5.2868955580,,,
27.2656250000,109,6.5335826034,,,
27.2812500000,109,16.4841749833,,,
27.2968750000,109,-6.4367307483,33024,27.2998046875,0.0000000000
27.3125000000,109,-17.9350374332,,,
27.3281250000,109,-17.9973640142,,,
27.3437500000,109,-24.9348609705,,,
27.3593750000,109,-23.6875111691,,,
27.3750000000,109,-20.1945552643,,,
27.3906250000,109,-20.9456442063,,,
27.4062500000,109,-16.6750233206,,,
27.4218750000,109,-13.2405799886,,,
27.4375000000,109,-14.8736971173,,,
27.4531250000,109,-11.2809808415,,,
27.4687500000,109,-8.0241749253,,,
27.4843750000,109,-10.4251719508,,,
27.5000000000,110,-9.6033075215,,,
27.5156250000,110,-12.0531225148,,,
27.5312500000,110,-14.1361913967,,,
27.5468750000,110,-9.0064884276,,,
27.5625000000,110,-9.5180395567,,,
27.5781250000,110,-8.1060722096,,,
27.5937500000,110,0.6066474484,33024,27.5996093750,0.0000000000
27.6093750000,110,4.2007077552,,,
27.6250000000,110,5.6448272822,,,
27.6406250000,110,9.3803795992,,,
27.6562500000,110,11.1057423663,,,
27.6718750000,110,7.4894772629,,,
27.6875000000,110,6.0112268319,,,
27.7031250000,110,9.6822603976,,,
27.7187500000,110,8.0427749643,,,
27.7343750000,110,6.7223658327,,,
27.7500000000,111,8.6221230185,,,
27.7656250000,111,6.8850974268,,,
27.7812500000,111,6.8588305877,,,
27.7968750000,111,7.0351260839,,,
27.8125000000,111,6.9417349159,,,
27.8281250000,111,9.0411725348,,,
27.8437500000,111,9.4895236555,,,
27.8593750000,111,9.9509127922,,,
27.8750000000,111,9.7701832068,,,
27.8906250000,111,10.2623141246,33024,27.8994140625,0.0000000000
27.9062500000,111,10.6979927276,,,
27.9218750000,111,8.4856367548,,,
27.9375000000,111,8.2478080682,,,
27.9531250000,111,4.0455611516,,,
27.9687500000,111,-2.6724828933,,,
27.9843750000,111,-3.3656171333,,,
28.0000000000,112,-3.0533869034,,,
28.0156250000,112,-3.9165759632,,,
28.0312500000,112,-6.4533010084,,,
28.0468750000,112,-4.5030977407,,,
28.0625000000,112,3.9532712300,,,
28.0781250000,112,6.1667912006,,,
28.0937500000,112,3.6141243015,,,
28.1093750000,112,2.5728159493,,,
28.1250000000,112,4.1247858333,,,
28.1406250000,112,4.5027510825,,,
28.1562500000,112,-0.5135988647,,,
28.1718750000,112,-2.1032980407,,,
28.1875000000,112,-3.0911930408,33024,28.1992187500,0.0000000000
28.2031250000,112,-5.7824821393,,,
28.2187500000,112,-3.6946047467,,,
28.2343750000,112,-6.2560741147,,,
28.2500000000,113,-9.2232415723,,,
28.2656250000,113,-4.0634202167,,,
28.2812500000,113,-2.0350236268,,,
28.2968750000,113,-5.3853488806,,,
28.3125000000,113,-5.5118892107,,,
28.3281250000,113,0.0944925753,,,
28.3437500000,113,1.4281490052,,,
28.3593750000,113,-1.6512695927,,,
28.3750000000,113,0.0501779673,,,
28.3906250000,113,-1.4136419012,,,
28.4062500000,113,-3.8047579583,,,
28.4218750000,113,-1.6374339573,,,
28.4375000000,113,-2.5282479881,,,
28.4531250000,113,-3.7422759826,,,
28.4687500000,113,-4.5192928826,,,
28.4843750000,113,-4.8727683800,33024,28.4990234375,0.0000000000
28.5000000000,114,-2.2161055507,,,
28.5156250000,114,0.3812663463,,,
28.5312500000,114,1.2847862365,,,
28.5468750000,114,-1.9936731635,,,
28.5625000000,114,-1.7034808804,,,
28.5781250000,114,4.3753214417,,,
28.5937500000,114,3.8448355654,,,
28.6093750000,114,0.0230752901,,,
28.6250000000,114,-2.2449803814,,,
28.6406250000,114,-2.5803030629,,,
28.6562500000,114,-1.2348978364,,,
28.6718750000,114,-2.1839050848,,,
28.6875000000,114,0.0376210855,,,
28.7031250000,114,1.2540244737,,,
28.7187500000,114,-1.4321932653,,,
28.7343750000,114,-0.2771932711,,,
28.7500000000,115,-2.1404123946,,,
28.7656250000,115,-3.1808194198,,,
28.7812500000,115,6.1837272809,,,
28.7968750000,115,12.6467470846,33024,28.7998046875,0.0000000000
28.8125000000,115,6.1126248134,,,
28.8281250000,115,-1.2398039746,,,
28.8437500000,115,2.5934131504,,,
28.8593750000,115,5.3056117120,,,
28.8750000000,115,-0.0666668193,,,
28.8906250000,115,-2.9629517052,,,
28.9062500000,115,-1.0775117867,,,
28.9218750000,115,5.3842907487,,,
28.9375000000,115,3.3628858463,,,
28.9531250000,115,-8.0789049563,,,
28.9687500000,115,-5.6183421750,,,
28.9843750000,115,2.1999141870,,,
29.0000000000,116,5.2447603221,,,
29.0156250000,116,7.7821459146,,,
29.0312500000,116,-0.0614155459,,,
29.0468750000,116,-6.8716806826,,,
29.0625000000,116,1.0480857868,,,
29.0781250000,116,7.3575785774,,,
29.0937500000,116,0.9009012041,33024,29.0996093750,0.0000000000
29.1093750000,116,-6.7216255066,,,
29.1250000000,116,-4.3180289882,,,
29.1406250000,116,-0.2011857538,,,
29.1562500000,116,-0.3632175082,,,
29.1718750000,116,-2.4505080876,,,
29.1875000000,116,-5.2889051642,,,
29.2031250000,116,-1.3808734011,,,
29.2187500000,116,4.4890798086,,,
29.2343750000,116,4.4465090910,,,
29.2500000000,117,2.2588546457,,,
29.2656250000,117,-1.2577652368,,,
29.2812500000,117,-0.0359134860,,,
29.2968750000,117,3.3466440847,,,
29.3125000000,117,-0.4341840096,,,
29.3281250000,117,-4.7624292660,,,
29.3437500000,117,-4.8945147472,,,
29.3593750000,117,-1.3186009306,,,
29.3750000000,117,0.3890696930,,,
29.3906250000,117,-2.8802548838,33024,29.3994140625,0.0000000000
29.4062500000,117,-4.1038679206,,,
29.4218750000,117,-3.2506340119,,,
29.4375000000,117,1.7107355449,,,
29.4531250000,117,5.9541009852,,,
29.4687500000,117,1.5138344597,,,
29.4843750000,117,0.3693576526,,,
29.5000000000,118,3.0357317339,,,
29.5156250000,118,1.1320392843,,,
29.5312500000,118,-2.1724058217,,,
29.5468750000,118,-3.9124066875,,,
29.5625000000,118,-2.7812145087,,,
29.5781250000,118,-0.5828518586,,,
29.5937500000,118,3.3324297904,,,
29.6093750000,118,3.7070727525,,,
29.6250000000,118,-2.9800830290,,,
29.6406250000,118,-2.7297286630,,,
29.6562500000,118,1.3960836654,,,
29.6718750000,118,0.6737683127,,,
29.6875000000,118,0.8615333949,33024,29.6992187500,0.0000000000
29.7031250000,118,0.5081493972,,,
29.7187500000,118,0.9141039911,,,
29.7343750000,118,1.4963686473,,,
29.7500000000,119,1.0354519848,,,
29.7656250000,119,2.8598177287,,,
29.7812500000,119,0.7707472489,,,
29.7968750000,119,-2.2787833408,,,
29.8125000000,119,-1.0506623128,,,
29.8281250000,119,0.0621415561,,,
29.8437500000,119,0.3074707030,,,
29.8593750000,119,0.4695315029,,,
29.8750000000,119,2.5375934863,,,
29.8906250000,119,1.5371430629,,,
29.9062500000,119,-1.5068872471,,,
29.9218750000,119,0.5983386233,,,
29.9375000000,119,-0.1511985306,,,
29.9531250000,119,-1.2391811110,,,
29.9687500000,119,1.3642087396,,,
29.9843750000,119,-0.5234020922,33024,29.9990234375,0.0000000000
30.0000000000,120,-1.7330371150,,,
30.0156250000,120,-0.3916932159,,,
30.0312500000,120,0.1199997284,,,
30.0468750000,120,-0.1931419510,,,
30.0625000000,120,-3.0810180635,,,
30.0781250000,120,-3.2348166535,,,
30.0937500000,120,-0.3819625635,,,
30.1093750000,120,1.6216522785,,,
30.1250000000,120,1.6680513426,,,
30.1406250000,120,0.7823290806,,,
30.1562500000,120,4.3492340133,,,
30.1718750000,120,5.6125304943,,,
30.1875000000,120,2.7081049852,,,
30.2031250000,120,1.8936375857,,,
30.2187500000,120,-1.3015191296,,,
30.2343750000,120,-2.3609285659,,,
30.2500000000,121,0.4981579015,,,
30.2656250000,121,-1.4042400320,,,
30.2812500000,121,-6.1045472311,,,
30.2968750000,121,-5.9735069641,33024,30.2998046875,0.0000000000
30.3125000000,121,0.0514908575,,,
30.3281250000,121,0.6154893947,,,
30.3437500000,121,-2.2327405471,,,
30.3593750000,121,1.8538705042,,,
30.3750000000,121,3.3540912743,,,
30.3906250000,121,0.8994635887,,,
30.4062500000,121,-0.6515170920,,,
30.4218750000,121,-1.4018996932,,,
30.4375000000,121,0.9421412499,,,
30.4531250000,121,-0.8305568676,,,
30.4687500000,121,-4.0928603571,,,
30.4843750000,121,-2.0384301161,,,
30.5000000000,122,-0.3596544353,,,
30.5156250000,122,-1.2950041599,,,
30.5312500000,122,-3.2733609427,,,
30.5468750000,122,-0.2447783864,,,
30.5625000000,122,2.4057572691,,,
30.5781250000,122,-0.2116177932,,,
30.5937500000,122,1.9488858477,33024,30.5996093750,0.0000000000
30.6093750000,122,3.8786031273,,,
30.6250000000,122,3.8209035934,,,
30.6406250000,122,3.0286948532,,,
30.6562500000,122,-0.4935274940,,,
30.6718750000,122,1.1167581773,,,
30.6875000000,122,0.5985192355,,,
30.7031250000,122,-2.4455353988,,,
30.7187500000,122,-0.9383801291,,,
30.7343750000,122,-0.9693954955,,,
30.7500000000,123,0.7835892848,,,
30.7656250000,123,-0.5695201369,,,
30.7812500000,123,-12.2169332032,,,
30.7968750000,123,-21.3428524942,,,
30.8125000000,123,-13.0857297818,,,
30.8281250000,123,6.6686275876,,,
30.8437500000,123,13.0705487931,,,
30.8593750000,123,8.4802808011,,,
30.8750000000,123,9.8751863140,,,
30.8906250000,123,9.7018513810,33024,30.8994140625,0.0000000000
30.9062500000,123,6.6229569318,,,
30.9218750000,123,5.7993800274,,,
30.9375000000,123,7.5295180834,,,
30.9531250000,123,9.3704292039,,,
30.9687500000,123,5.1521223810,,,
30.9843750000,123,2.9430393149,,,
31.0000000000,124,4.9362501078,,,
31.0156250000,124,3.4073960576,,,
31.0312500000,124,1.3498391050,,,
31.0468750000,124,-1.1732705421,,,
31.0625000000,124,-2.2286781892,,,
31.0781250000,124,-2.2709772014,,,
31.0937500000,124,-5.6262329826,,,
31.1093750000,124,-6.7113487579,,,
31.1250000000,124,-5.3840763100,,,
31.1406250000,124,-5.0100672155,,,
31.1562500000,124,-6.1091612905,,,
31.1718750000,124,-7.1187187628,,,
31.1875000000,124,-4.5296360699,33024,31.1992187500,0.0000000000
31.2031250000,124,-2.5714765036,,,
31.2187500000,124,-1.6868164083,,,
31.2343750000,124,-2.1613212047,,,
31.2500000000,125,-6.0082885783,,,
31.2656250000,125,-5.4430249423,,,
31.2812500000,125,-3.7658798835,,,
31.2968750000,125,-6.2238787318,,,
31.3125000000,125,-5.4599319365,,,
31.3281250000,125,-0.8220549057,,,
31.3437500000,125,2.1316603000,,,
31.3593750000,125,0.4582399081,,,
31.3750000000,125,0.7804443306,,,
31.3906250000,125,5.7764649193,,,
31.4062500000,125,6.7148591045,,,
31.4218750000,125,7.9510839535,,,
31.4375000000,125,15.8129330485,,,
31.4531250000,125,23.6338405268,,,
31.4687500000,125,21.2401007945,,,
31.4843750000,125,1.9817792994,33024,31.4990234375,0.0000000000
31.5000000000,126,-17.6373734824,,,
31.5156250000,126,-19.4444689766,,,
31.5312500000,126,-16.7740684459,,,
31.5468750000,126,-19.1040441452,,,
31.5625000000,126,-16.4295419928,,,
31.5781250000,126,-8.3821255331,,,
31.5937500000,126,-2.8442391961,,,
31.6093750000,126,-0.8123095537,,,
31.6250000000,126,5.8821485925,,,
31.6406250000,126,12.6912006093,,,
31.6562500000,126,4.0657941653,,,
31.6718750000,126,-6.0110718955,,,
31.6875000000,126,-3.1045087361,,,
31.7031250000,126,-0.4096511281,,,
31.7187500000,126,-1.9276705320,,,
31.7343750000,126,-0.4792243968,,,
31.7500000000,127,0.9667757875,,,
31.7656250000,127,-1.4282147886,,,
31.7812500000,127,0.5450219274,,,
31.7968750000,127,4.5664802099,33024,31.7998046875,0.0000000000
31.8125000000,127,1.9170629025,,,
31.8281250000,127,1.0313244002,,,
31.8437500000,127,5.7576832905,,,
31.8593750000,127,11.2717246050,,,
31.8750000000,127,11.4666777911,,,
31.8906250000,127,6.7514498468,,,
31.9062500000,127,6.1498678705,,,
31.9218750000,127,7.5957007134,,,
31.9375000000,127,6.8066612684,,,
31.9531250000,127,3.1591045701,,,
31.9687500000,127,0.3337539774,,,
31.9843750000,127,2.0507149652,,,
32.0000000000,128,0.6521980967,,,
32.0156250000,128,-0.8396936322,,,
32.0312500000,128,-0.2428942378,,,
32.0468750000,128,-3.1283836923,,,
32.0625000000,128,-3.0481466494,,,
32.0781250000,128,-1.6640830528,,,
32.0937500000,128,-1.6935906277,33024,32.0996093750,0.0000000000
32.1093750000,128,-0.1747515600,,,
32.1250000000,128,0.3525993559,,,
32.1406250000,128,2.0300541531,,,
32.1562500000,128,1.9393082138,,,
32.1718750000,128,0.0381433107,,,
32.1875000000,128,0.9827400201,,,
32.2031250000,128,-1.1434230900,,,
32.2187500000,128,-3.7553861165,,,
32.2343750000,128,-1.8697708365,,,
32.2500000000,129,0.9084850779,,,
32.2656250000,129,0.3786103613,,,
32.2812500000,129,-3.5935011607,,,
32.2968750000,129,-2.3309084719,,,
32.3125000000,129,0.8429868008,,,
32.3281250000,129,-1.8177748665,,,
32.3437500000,129,-4.7166156077,,,
32.3593750000,129,-4.7022146005,,,
32.3750000000,129,-1.4387705237,,,
32.3906250000,129,-1.3210988797,33024,32.3994140625,0.0000000000
32.4062500000,129,-5.5820210035,,,
32.4218750000,129,-4.8824420042,,,
32.4375000000,129,-3.2114974325,,,
32.4531250000,129,-3.1062353420,,,
32.4687500000,129,-2.9476587349,,,
32.4843750000,129,-1.2876323054,,,
32.5000000000,130,4.3493909240,,,
32.5156250000,130,3.4964336491,,,
32.5312500000,130,-0.8651521976,,,
32.5468750000,130,1.1439377499,,,
32.5625000000,130,2.2488757805,,,
32.5781250000,130,0.8896716944,,,
32.5937500000,130,-0.8569867597,,,
32.6093750000,130,-0.3052521382,,,
32.6250000000,130,2.3006989979,,,
32.6406250000,130,0.8503516306,,,
32.6562500000,130,-1.0079600708,,,
32.6718750000,130,-1.5517336421,,,
32.6875000000,130,-1.4248840181,33024,32.6992187500,0.0000000000
32.7031250000,130,-0.3476821064,,,
32.7187500000,130,-1.0238316793,,,
32.7343750000,130,-1.2548363801,,,
32.7500000000,131,-2.5744048147,,,
32.7656250000,131,-1.4060833121,,,
32.7812500000,131,4.4714247377,,,
32.7968750000,131,3.2646288696,,,
32.8125000000,131,-0.2617453444,,,
32.8281250000,131,0.6563189077,,,
32.8437500000,131,0.4400484601,,,
32.8593750000,131,0.0666564575,,,
32.8750000000,131,-0.5066760782,,,
32.8906250000,131,-0.0876632435,,,
32.9062500000,131,-0.5372024727,,,
32.9218750000,131,-2.9589031832,,,
32.9375000000,131,-2.4209001363,,,
32.9531250000,131,-2.5555477178,,,
32.9687500000,131,-1.8187637662,,,
32.9843750000,131,1.0315694260,33024,32.9990234375,0.0000000000
33.0000000000,132,2.0025058695,,,
33.0156250000,132,3.8410054348,,,
33.0312500000,132,4.0780623214,,,
33.0468750000,132,3.1754651274,,,
33.0625000000,132,3.2700806130,,,
33.0781250000,132,3.3450071519,,,
33.0937500000,132,5.8982789237,,,
33.1093750000,132,3.6062588068,,,
33.1250000000,132,-1.5416512409,,,
33.1406250000,132,0.5241175190,,,
33.1562500000,132,1.3754457959,,,
33.1718750000,132,-0.7885821674,,,
33.1875000000,132,0.2197350126,,,
33.2031250000,132,2.4960661284,,,
33.2187500000,132,1.3073320572,,,
33.2343750000,132,-2.5271410370,,,
33.2500000000,133,-1.0082033552,,,
33.2656250000,133,0.4696533528,,,
33.2812500000,133,-1.2592585520,,,
33.2968750000,133,0.2036385332,33024,33.2998046875,0.0000000000
33.3125000000,133,-0.5110118671,,,
33.3281250000,133,-2.9566370271,,,
33.3437500000,133,-3.7765705031,,,
33.3593750000,133,-3.0198966638,,,
33.3750000000,133,-1.0393592766,,,
33.3906250000,133,-2.1950440836,,,
33.4062500000,133,0.1467042620,,,
33.4218750000,133,3.9405849984,,,
33.4375000000,133,0.4609598154,,,
33.4531250000,133,-0.2367045346,,,
33.4687500000,133,2.6031382821,,,
33.4843750000,133,2.3964369482,,,
33.5000000000,134,1.1431806416,,,
33.5156250000,134,-0.5414684733,,,
33.5312500000,134,-2.6535169089,,,
33.5468750000,134,-4.3654664579,,,
33.5625000000,134,-3.3038538030,,,
33.5781250000,134,-4.3709978100,,,
33.5937500000,134,-6.1888769718,33024,33.5996093750,0.0000000000
33.6093750000,134,1.3659218467,,,
33.6250000000,134,5.5595458388,,,
33.6406250000,134,1.4593974253,,,
33.6562500000,134,0.9229459003,,,
33.6718750000,134,0.6836098611,,,
33.6875000000,134,-0.4961917346,,,
33.7031250000,134,-2.9769745096,,,
33.7187500000,134,-6.8602868712,,,
33.7343750000,134,-5.6555221543,,,
33.7500000000,135,-2.5285776228,,,
33.7656250000,135,-0.1446568842,,,
33.7812500000,135,0.4413542437,,,
33.7968750000,135,0.4403062098,,,
33.8125000000,135,3.9246451115,,,
33.8281250000,135,5.4627276197,,,
33.8437500000,135,3.6075461063,,,
33.8593750000,135,1.3280054669,,,
33.8750000000,135,3.2969778391,,,
33.8906250000,135,7.8838208599,33024,33.8994140625,0.0000000000
33.9062500000,135,4.1536286609,,,
33.9218750000,135,0.2116856447,,,
33.9375000000,135,0.6819405529,,,
33.9531250000,135,-2.1759901230,,,
33.9687500000,135,-3.3862079061,,,
33.9843750000,135,-3.3315820970,,,
34.0000000000,136,-3.6444570215,,,
34.0156250000,136,-2.3482017663,,,
34.0312500000,136,-0.6025176366,,,
34.0468750000,136,2.8317875498,,,
34.0625000000,136,4.0821322852,,,
34.0781250000,136,3.5288870709,,,
34.0937500000,136,1.8422788217,,,
34.1093750000,136,-2.7527955176,,,
34.1250000000,136,-3.4307495205,,,
34.1406250000,136,-0.4408398818,,,
34.1562500000,136,3.5799286106,,,
34.1718750000,136,5.0642885038,,,
34.1875000000,136,1.9109161803,,,
34.2031250000,136,4.3031404622,,,
34.2187500000,136,5.9978471262,,,
34.2343750000,136,-0.3872210316,,,
34.2500000000,137,-2.3520599812,,,
34.2656250000,137,1.1036896362,,,
34.2812500000,137,1.8924760906,,,
34.2968750000,137,-1.9152038055,,,
34.3125000000,137,-2.5112340079,,,
34.3281250000,137,1.2394365386,,,
34.3437500000,137,-1.8076887819,,,
34.3593750000,137,-6.0932218820,,,
34.3750000000,137,-7.2760396082,,,
34.3906250000,137,-9.0044344201,,,
34.4062500000,137,-7.0487895928,,,
34.4218750000,137,-5.9944325503,,,
34.4375000000,137,-6.2786886244,,,
34.4531250000,137,-3.4956584825,,,
34.4687500000,137,-0.3424139636,,,
34.4843750000,137,1.9043182548,,,
34.5000000000,138,0.8683994759,,,
34.5156250000,138,1.9515703303,,,
34.5312500000,138,6.3759836052,,,
34.5468750000,138,6.8138527946,,,
34.5625000000,138,4.8448003156,,,
34.5781250000,138,2.0774461681,,,
34.5937500000,138,4.7383269322,,,
34.6093750000,138,9.6432048454,,,
34.6250000000,138,5.0432455983,,,
34.6406250000,138,1.8187660470,,,
34.6562500000,138,4.6663572757,,,
34.6718750000,138,5.3258685081,,,
34.6875000000,138,3.4933717872,,,
34.7031250000,138,-0.3323505103,,,
34.7187500000,138,-2.0494000494,,,
34.7343750000,138,-1.4833804291,,,
34.7500000000,139,-1.9767265668,,,
34.7656250000,139,-3.8075179084,,,
34.7812500000,139,-5.3193270765,,,
34.7968750000,139,-2.1997178826,,,
34.8125000000,139,-2.0439436339,,,
34.8281250000,139,-5.6169086132,,,
34.8437500000,139,-3.2608627162,,,
34.8593750000,139,-1.1977231626,,,
34.8750000000,139,-1.6279327275,,,
34.8906250000,139,-3.3974688515,,,
34.9062500000,139,-6.2309738126,,,
34.9218750000,139,-3.2422787855,,,
34.9375000000,139,-1.3090084394,,,
34.9531250000,139,-5.4354955598,,,
34.9687500000,139,-8.3503658341,,,
34.9843750000,139,-5.2386639531,,,
35.0000000000,140,0.4152987360,,,
35.0156250000,140,-1.2844799545,,,
35.0312500000,140,-2.9351537850,,,
35.0468750000,140,1.3950896599,,,
35.0625000000,140,1.4841670339,,,
35.0781250000,140,0.2222750106,,,
35.0937500000,140,1.9049324134,,,
35.1093750000,140,4.4855267570,,,
35.1250000000,140,4.3285123626,,,
35.1406250000,140,-0.4699295512,,,
35.1562500000,140,0.2440748986,,,
35.1718750000,140,4.6970530420,,,
35.1875000000,140,5.2079505672,,,
35.2031250000,140,3.2564037931,,,
35.2187500000,140,0.3822967726,,,
35.2343750000,140,2.3006031220,,,
35.2500000000,141,4.1511024918,,,
35.2656250000,141,1.5694829973,,,
35.2812500000,141,1.5580239033,,,
35.2968750000,141,2.8876677728,,,
35.3125000000,141,4.5818813351,,,
35.3281250000,141,3.9460494157,,,
35.3437500000,141,0.7523250516,,,
35.3593750000,141,0.4469031765,,,
35.3750000000,141,0.6088511604,,,
35.3906250000,141,1.6566052590,,,
35.4062500000,141,2.1694856473,,,
35.4218750000,141,1.4670718011,,,
35.4375000000,141,2.4540764816,,,
35.4531250000,141,-0.9735272604,,,
35.4687500000,141,-3.2893831503,,,
35.4843750000,141,0.1901560725,,,
35.5000000000,142,1.7807335966,,,
35.5156250000,142,2.1983046547,,,
35.5312500000,142,2.0032437605,,,
35.5468750000,142,3.1372387189,,,
35.5625000000,142,3.2452035075,,,
35.5781250000,142,-1.3864090018,,,
35.5937500000,142,-3.0507569103,,,
35.6093750000,142,-2.7537268690,,,
35.6250000000,142,-1.8966772711,,,
35.6406250000,142,-0.7908334873,,,
35.6562500000,142,-3.8043272111,,,
35.6718750000,142,-4.4772416988,,,
35.6875000000,142,-3.4142646086,,,
35.7031250000,142,-4.3153977524,,,
35.7187500000,142,-4.0516807773,,,
35.7343750000,142,-2.7602587482,,,
35.7500000000,143,-0.2247289933,,,
35.7656250000,143,-0.3619402556,,,
35.7812500000,143,-0.1649578890,,,
35.7968750000,143,3.0666145806,,,
35.8125000000,143,1.3946937907,,,
35.8281250000,143,0.9799322571,,,
35.8437500000,143,2.3896837116,,,
35.8593750000,143,-1.8874390401,,,
35.8750000000,143,-4.4972377989,,,
35.8906250000,143,-3.2725181401,,,
35.9062500000,143,-0.9355810625,,,
35.9218750000,143,-0.8526841242,,,
35.9375000000,143,-2.4243255466,,,
35.9531250000,143,-0.3524607335,,,
35.9687500000,143,-0.2450308532,,,
35.9843750000,143,-1.3393558270,,,
36.0000000000,144,-0.2798872846,,,
36.0156250000,144,0.9572056386,,,
36.0312500000,144,3.4453995052,,,
36.0468750000,144,2.5950695396,,,
36.0625000000,144,0.9253566369,,,
36.0781250000,144,1.8286419774,,,
36.0937500000,144,2.1732012569,,,
36.1093750000,144,2.0044831462,,,
36.1250000000,144,-3.4495617137,,,
36.1406250000,144,-6.8421022440,,,
36.1562500000,144,-1.5634322898,,,
36.1718750000,144,0.6993086193,,,
36.1875000000,144,0.8355211789,,,
36.2031250000,144,2.1778208990,,,
36.2187500000,144,1.8209050953,,,
36.2343750000,144,0.9418627087,,,
36.2500000000,145,0.7283686564,,,
36.2656250000,145,4.5400333278,,,
36.2812500000,145,6.9370087459,,,
36.2968750000,145,4.8445958443,,,
36.3125000000,145,2.9404643172,,,
36.3281250000,145,-0.8370959765,,,
36.3437500000,145,-2.4570127741,,,
36.3593750000,145,-2.5287699011,,,
36.3750000000,145,-4.5972827299,,,
36.3906250000,145,-3.8655027024,,,
36.4062500000,145,-3.1964342663,,,
36.4218750000,145,-2.4816429529,,,
36.4375000000,145,-1.0507533149,,,
36.4531250000,145,-0.5575746452,,,
36.4687500000,145,1.7208786949,,,
36.4843750000,145,1.7189378041,,,
36.5000000000,146,0.5813530687,,,
36.5156250000,146,0.8088894061,,,
36.5312500000,146,2.4216060476,,,
36.5468750000,146,5.4502871142,,,
36.5625000000,146,0.9959544362,,,
36.5781250000,146,-4.1030905550,,,
36.5937500000,146,-1.4948835769,,,
36.6093750000,146,-0.7977172931,,,
36.6250000000,146,-2.5476244628,,,
36.6406250000,146,-4.1747525558,,,
36.6562500000,146,-2.4056796068,,,
36.6718750000,146,2.3762381592,,,
36.6875000000,146,1.2815188812,,,
36.7031250000,146,-0.2903730406,,,
36.7187500000,146,1.6067613340,,,
36.7343750000,146,1.7776720901,,,
36.7500000000,147,0.5650034694,,,
36.7656250000,147,-0.2061248623,,,
36.7812500000,147,1.0881952624,,,
36.7968750000,147,1.2696229031,,,
36.8125000000,147,1.7554616892,,,
36.8281250000,147,1.8994745302,,,
36.8437500000,147,-3.3524080443,,,
36.8593750000,147,-2.9341067784,,,
36.8750000000,147,1.0923996616,,,
36.8906250000,147,-1.0491476369,,,
36.9062500000,147,-2.3079416709,,,
36.9218750000,147,-2.8399788311,,,
36.9375000000,147,-2.0518634548,,,
36.9531250000,147,0.6646324610,,,
36.9687500000,147,1.2070778838,,,
36.9843750000,147,2.0563901503,,,
37.0000000000,148,0.7782452320,,,
37.0156250000,148,0.2590733564,,,
37.0312500000,148,3.5135396344,,,
37.0468750000,148,3.4646793718,,,
37.0625000000,148,1.2016847536,,,
37.0781250000,148,0.6002200877,,,
37.0937500000,148,1.9153598516,,,
37.1093750000,148,-0.0091105867,,,
37.1250000000,148,-4.8299051553,,,
37.1406250000,148,-2.8717470497,,,
37.1562500000,148,-0.3945182929,,,
37.1718750000,148,-0.9231527024,,,
37.1875000000,148,0.4695975643,,,
37.2031250000,148,0.6788442389,,,
37.2187500000,148,3.0541653950,,,
37.2343750000,148,5.1532084728,,,
37.2500000000,149,3.3142543498,,,
37.2656250000,149,1.7247284305,,,
37.2812500000,149,-1.3480692608,,,
37.2968750000,149,-3.3745237664,,,
37.3125000000,149,-3.6891607310,,,
37.3281250000,149,-2.7608546250,,,
37.3437500000,149,-0.7802334161,,,
37.3593750000,149,-2.9382311397,,,
37.3750000000,149,-3.3040306029,,,
37.3906250000,149,-1.5894329847,,,
37.4062500000,149,-1.9917028340,,,
37.4218750000,149,-0.3866456950,,,
37.4375000000,149,-0.7013205689,,,
37.4531250000,149,-0.2757083626,,,
37.4687500000,149,3.8918788572,,,
37.4843750000,149,3.8763400712,,,
37.5000000000,150,0.8132746609,,,
37.5156250000,150,-0.5951469167,,,
37.5312500000,150,1.3864267336,,,
37.5468750000,150,1.1893522233,,,
37.5625000000,150,-2.1683842797,,,
37.5781250000,150,-0.8362599741,,,
37.5937500000,150,-0.7805624366,,,
37.6093750000,150,-2.4116275342,,,
37.6250000000,150,-1.2713667325,,,
37.6406250000,150,-0.7917179484,,,
37.6562500000,150,1.3025622376,,,
37.6718750000,150,2.7771588101,,,
37.6875000000,150,5.2204202530,,,
37.7031250000,150,8.3679477567,,,
37.7187500000,150,3.5173576086,,,
37.7343750000,150,-1.1712285051,,,
37.7500000000,151,-1.4264265056,,,
37.7656250000,151,-2.4840290044,,,
37.7812500000,151,-2.8662293603,,,
37.7968750000,151,-2.9947448384,,,
37.8125000000,151,-2.1587094867,,,
37.8281250000,151,-0.4656910663,,,
37.8437500000,151,3.1042464074,,,
37.8593750000,151,5.7572688152,,,
37.8750000000,151,0.6161859903,,,
37.8906250000,151,-2.8008005047,,,
37.9062500000,151,-1.0111928701,,,
37.9218750000,151,-0.0631609430,,,
37.9375000000,151,0.6535928925,,,
37.9531250000,151,-1.7961170082,,,
37.9687500000,151,-2.5226399478,,,
37.9843750000,151,0.1565001726,,,
38.0000000000,152,-0.2752022058,,,
38.0156250000,152,-1.9288333364,,,
38.0312500000,152,-4.4435066584,,,
38.0468750000,152,-2.8571894883,,,
38.0625000000,152,1.5942215331,,,
38.0781250000,152,0.5341443202,,,
38.0937500000,152,-0.6065632486,,,
38.1093750000,152,-1.0458695236,,,
38.1250000000,152,-1.7640916218,,,
38.1406250000,152,-1.3891051604,,,
38.1562500000,152,-1.9483491784,,,
38.1718750000,152,1.6250299394,,,
38.1875000000,152,5.4369072582,,,
38.2031250000,152,3.5687707991,,,
38.2187500000,152,-0.6889387129,,,
38.2343750000,152,-3.4619884448,,,
38.2500000000,153,-0.6387505160,,,
38.2656250000,153,0.9422946083,,,
38.2812500000,153,-1.1303587376,,,
38.2968750000,153,-0.2312147587,,,
38.3125000000,153,2.1101483407,,,
38.3281250000,153,5.5686075539,,,
38.3437500000,153,5.8389957829,,,
38.3593750000,153,3.1072239606,,,
38.3750000000,153,2.7124995898,,,
38.3906250000,153,-1.1472114282,,,
38.4062500000,153,-4.7875989560,,,
38.4218750000,153,-3.8074806290,,,
38.4375000000,153,-2.2460871790,,,
38.4531250000,153,-1.4574624529,,,
38.4687500000,153,-3.7459537589,,,
38.4843750000,153,-2.7996766200,,,
38.5000000000,154,1.0701472690,,,
38.5156250000,154,0.8493759157,,,
38.5312500000,154,0.9700239708,,,
38.5468750000,154,1.1766035254,,,
38.5625000000,154,1.8059601614,,,
38.5781250000,154,2.4755960212,,,
38.5937500000,154,0.4281941008,,,
38.6093750000,154,0.8590703038,,,
38.6250000000,154,0.4572656605,,,
38.6406250000,154,-0.6695488466,,,
38.6562500000,154,1.0291607944,,,
38.6718750000,154,0.2354348262,,,
38.6875000000,154,-0.5083565213,,,
38.7031250000,154,-0.1134886928,,,
38.7187500000,154,0.6304101335,,,
38.7343750000,154,1.2189033297,,,
38.7500000000,155,-0.3444980006,,,
38.7656250000,155,1.3248868203,,,
38.7812500000,155,2.0713401080,,,
38.7968750000,155,-0.7831452216,,,
38.8125000000,155,-0.5167755356,,,
38.8281250000,155,0.2631961778,,,
38.8437500000,155,0.5274837418,,,
38.8593750000,155,0.0180808441,,,
38.8750000000,155,-0.3037319473,,,
38.8906250000,155,0.4130127743,,,
38.9062500000,155,-2.5082434018,,,
38.9218750000,155,-2.3472070062,,,
38.9375000000,155,-0.0127594382,,,
38.9531250000,155,-2.1402836571,,,
38.9687500000,155,-1.9399290614,,,
38.9843750000,155,-0.8136454021,,,
39.0000000000,156,-0.7839098221,,,
39.0156250000,156,-0.7853049017,,,
39.0312500000,156,-0.7669159663,,,
39.0468750000,156,1.6395705188,,,
39.0625000000,156,0.4751118303,,,
39.0781250000,156,-0.6749496083,,,
39.0937500000,156,2.8218429415,,,
39.1093750000,156,2.7225810936,,,
39.1250000000,156,-0.2447504625,,,
39.1406250000,156,-2.0521328469,,,
39.1562500000,156,-0.5507504228,,,
39.1718750000,156,0.3791744807,,,
39.1875000000,156,-2.2724600892,,,
39.2031250000,156,-0.4629185358,,,
39.2187500000,156,1.0963573488,,,
39.2343750000,156,0.2032685671,,,
39.2500000000,157,2.2169694530,,,
39.2656250000,157,1.6242019957,,,
39.2812500000,157,1.1239400737,,,
39.2968750000,157,1.3748520123,,,
39.3125000000,157,-1.5259800207,,,
39.3281250000,157,-2.7959739453,,,
39.3437500000,157,-1.2478373433,,,
39.3593750000,157,1.2658167082,,,
39.3750000000,157,-0.4898419550,,,
39.3906250000,157,-3.4657667146,,,
39.4062500000,157,-0.9190812568,,,
39.4218750000,157,-0.2385808804,,,
39.4375000000,157,-1.5411724660,,,
39.4531250000,157,-1.2416758686,,,
39.4687500000,157,0.6725872318,,,
39.4843750000,157,3.8010881604,,,
39.5000000000,158,1.9759818932,,,
39.5156250000,158,0.4024907870,,,
39.5312500000,158,1.5724234589,,,
39.5468750000,158,1.7977272343,,,
39.5625000000,158,3.2079585936,,,
39.5781250000,158,-0.4741625576,,,
39.5937500000,158,-4.3661913915,,,
39.6093750000,158,-1.5000301591,,,
39.6250000000,158,0.0277511232,,,
39.6406250000,158,-0.0217405537,,,
39.6562500000,158,-0.0073811279,,,
39.6718750000,158,1.7387881872,,,
39.6875000000,158,3.7215229147,,,
39.7031250000,158,0.7788052117,,,
39.7187500000,158,-0.6824719469,,,
39.7343750000,158,0.4329061898,,,
39.7500000000,159,1.2537580459,,,
39.7656250000,159,1.1346576153,,,
39.7812500000,159,-1.9152716210,,,
39.7968750000,159,-1.6729174616,,,
39.8125000000,159,-0.6622224045,,,
39.8281250000,159,-3.0627942253,,,
39.8437500000,159,-3.4310102738,,,
39.8593750000,159,-2.4596377593,,,
39.8750000000,159,-0.6751850582,,,
39.8906250000,159,0.0178444161,,,
39.9062500000,159,0.4372752539,,,
39.9218750000,159,2.6768083204,,,
39.9375000000,159,1.0293820266,,,
39.9531250000,159,-0.9184485146,,,
39.9687500000,159,-2.1646995336,,,
39.9843750000,159,-3.0267322486,,,
40.0000000000,160,2.5959644899,,,
40.0156250000,160,4.9244444566,,,
40.0312500000,160,1.4475304798,,,
40.0468750000,160,0.1505651103,,,
40.0625000000,160,-0.5388198018,,,
40.0781250000,160,-0.2510465690,,,
40.0937500000,160,0.0377015704,,,
40.1093750000,160,0.5939412571,,,
40.1250000000,160,0.5147021966,,,
40.1406250000,160,-0.7046364075,,,
40.1562500000,160,1.1213111506,,,
40.1718750000,160,-0.1346511933,,,
40.1875000000,160,-1.8890957788,,,
40.2031250000,160,0.8037564172,,,
40.2187500000,160,0.7466906736,,,
40.2343750000,160,0.9276624826,,,
40.2500000000,161,2.4906373591,,,
40.2656250000,161,3.3735626242,,,
40.2812500000,161,1.8925490676,,,
40.2968750000,161,-4.2576707133,,,
40.3125000000,161,-4.2483308809,,,
40.3281250000,161,0.3285309241,,,
40.3437500000,161,-0.9054824949,,,
40.3593750000,161,-2.6171649112,,,
40.3750000000,161,-1.2643977520,,,
40.3906250000,161,0.6027679155,,,
40.4062500000,161,-0.4102000522,,,
40.4218750000,161,-1.1133486922,,,
40.4375000000,161,0.6849132284,,,
40.4531250000,161,-1.2396296046,,,
40.4687500000,161,-0.5929198790,,,
40.4843750000,161,2.4185207260,,,
40.5000000000,162,0.8133767379,,,
40.5156250000,162,1.5470551430,,,
40.5312500000,162,2.7598773155,,,
40.5468750000,162,1.0875507897,,,
40.5625000000,162,-2.1499756049,,,
40.5781250000,162,-3.5233020638,,,
40.5937500000,162,1.0758375179,,,
40.6093750000,162,1.5645696621,,,
40.6250000000,162,-2.2405834471,,,
40.6406250000,162,-2.0414723337,,,
40.6562500000,162,0.1127668935,,,
40.6718750000,162,2.2084375612,,,
40.6875000000,162,0.8477752842,,,
40.7031250000,162,-0.0395522489,,,
40.7187500000,162,1.9322746334,,,
40.7343750000,162,1.5979972932,,,
40.7500000000,163,1.5372830625,,,
40.7656250000,163,-1.2761138693,,,
40.7812500000,163,-4.2826678635,,,
40.7968750000,163,-0.2814856470,,,
40.8125000000,163,1.0855651540,,,
40.8281250000,163,-0.8682680982,,,
40.8437500000,163,-0.0391661806,,,
40.8593750000,163,1.4993162889,,,
40.8750000000,163,1.1831076606,,,
40.8906250000,163,-0.6848655591,,,
40.9062500000,163,1.4249036249,,,
40.9218750000,163,4.1242300233,,,
40.9375000000,163,3.5008495067,,,
40.9531250000,163,0.9660299197,,,
40.9687500000,163,-4.1404481250,,,
40.9843750000,163,-3.0613290388,,,
41.0000000000,164,0.1788615927,,,
41.0156250000,164,-3.4714368641,,,
41.0312500000,164,-4.1635520169,,,
41.0468750000,164,-1.8379054010,,,
41.0625000000,164,-0.1618275641,,,
41.0781250000,164,1.1549743267,,,
41.0937500000,164,0.5522580407,,,
41.1093750000,164,3.1011957693,,,
41.1250000000,164,3.7622842915,,,
41.1406250000,164,-0.3961806274,,,
41.1562500000,164,-1.0822732882,,,
41.1718750000,164,1.0441897024,,,
41.1875000000,164,0.0318213935,,,
41.2031250000,164,-4.5619016521,,,
41.2187500000,164,-3.4434622477,,,
41.2343750000,164,0.7716716738,,,
41.2500000000,165,0.2939726489,,,
41.2656250000,165,1.9044496542,,,
41.2812500000,165,1.1465961683,,,
41.2968750000,165,-1.4465440722,,,
41.3125000000,165,2.5856189932,,,
41.3281250000,165,3.2444931078,,,
41.3437500000,165,-0.6144560221,,,
41.3593750000,165,-0.1395879978,,,
41.3750000000,165,3.2415660347,,,
41.3906250000,165,1.6536880610,,,
41.4062500000,165,-4.8457420679,,,
41.4218750000,165,-2.9627533018,,,
41.4375000000,165,2.5560891483,,,
41.4531250000,165,1.0969105359,,,
41.4687500000,165,-1.3717467456,,,
41.4843750000,165,-3.1041350363,,,
41.5000000000,166,-0.2137720244,,,
41.5156250000,166,3.3026933643,,,
41.5312500000,166,-2.5941809736,,,
41.5468750000,166,-7.7906898107,,,
41.5625000000,166,-4.5869880101,,,
41.5781250000,166,1.8484776169,,,
41.5937500000,166,3.1116927738,,,
41.6093750000,166,-0.0055909575,,,
41.6250000000,166,0.6316225332,,,
41.6406250000,166,1.3359382581,,,
41.6562500000,166,1.9279679834,,,
41.6718750000,166,2.8630899537,,,
41.6875000000,166,0.7437337887,,,
41.7031250000,166,1.7751729269,,,
41.7187500000,166,2.1899155396,,,
41.7343750000,166,-0.9590722289,,,
41.7500000000,167,-0.6930534405,,,
41.7656250000,167,1.8924352633,,,
41.7812500000,167,3.2327925147,,,
41.7968750000,167,-0.2364134161,,,
41.8125000000,167,-1.7934207851,,,
41.8281250000,167,2.0604331394,,,
41.8437500000,167,0.2144329344,,,
41.8593750000,167,-2.4837056123,,,
41.8750000000,167,-0.4944479229,,,
41.8906250000,167,1.2376727395,,,
41.9062500000,167,0.7888900868,,,
41.9218750000,167,-3.0132736166,,,
41.9375000000,167,-3.0874000129,,,
41.9531250000,167,0.4513049838,,,
41.9687500000,167,1.9894836980,,,
41.9843750000,167,2.7663500595,,,
42.0000000000,168,0.5112151568,,,
42.0156250000,168,-0.3130741864,,,
42.0312500000,168,-0.5369506538,,,
42.0468750000,168,-5.0883709004,,,
42.0625000000,168,-5.9193110410,,,
42.0781250000,168,-2.8901911621,,,
42.0937500000,168,0.4428916539,,,
42.1093750000,168,1.7879451220,,,
42.1250000000,168,1.0819670939,,,
42.1406250000,168,3.4327519750,,,
42.1562500000,168,3.5406352749,,,
42.1718750000,168,1.7902056952,,,
42.1875000000,168,1.2955986660,,,
42.2031250000,168,-1.0014987476,,,
42.2187500000,168,0.0821196397,,,
42.2343750000,168,1.4289792170,,,
42.2500000000,169,-2.0657824940,,,
42.2656250000,169,-4.7327599279,,,
42.2812500000,169,-0.7522065903,,,
42.2968750000,169,2.0661953973,,,
42.3125000000,169,-5.2798154959,,,
42.3281250000,169,-2.2343407683,,,
42.3437500000,169,6.9244470109,,,
42.3593750000,169,0.9706584352,,,
42.3750000000,169,0.1713968060,,,
42.3906250000,169,4.4298235995,,,
42.4062500000,169,1.0870915816,,,
42.4218750000,169,0.1001353833,,,
42.4375000000,169,0.4737869998,,,
42.4531250000,169,-0.1354961202,,,
42.4687500000,169,-2.2147154448,,,
42.4843750000,169,-2.6555306080,,,
42.5000000000,170,-0.1269169913,,,
42.5156250000,170,-1.9437435237,,,
42.5312500000,170,-2.2087686573,,,
42.5468750000,170,0.5898321550,,,
42.5625000000,170,2.0014718288,,,
42.5781250000,170,2.5705444968,,,
42.5937500000,170,-1.5293779317,,,
42.6093750000,170,-3.0230395564,,,
42.6250000000,170,0.4573508501,,,
42.6406250000,170,-0.4207608352,,,
42.6562500000,170,-1.9393487983,,,
42.6718750000,170,0.2472725493,,,
42.6875000000,170,2.4538911205,,,
42.7031250000,170,0.7016263000,,,
42.7187500000,170,-0.2889158917,,,
42.7343750000,170,3.8157272255,,,
42.7500000000,171,3.7386538970,,,
42.7656250000,171,0.7381877885,,,
42.7812500000,171,1.2132366409,,,
42.7968750000,171,0.4074551325,,,
42.8125000000,171,-1.2521219937,,,
42.8281250000,171,-2.6520122009,,,
42.8437500000,171,-2.2728985866,,,
42.8593750000,171,-0.0549960725,,,
42.8750000000,171,-0.1756403080,,,
42.8906250000,171,0.2419915614,,,
42.9062500000,171,-0.0644276396,,,
42.9218750000,171,-1.4097654876,,,
42.9375000000,171,0.3265586369,,,
42.9531250000,171,1.9042146296,,,
42.9687500000,171,1.5449109284,,,
42.9843750000,171,0.0310161332,,,
43.0000000000,172,1.1115586129,,,
43.0156250000,172,2.6230147613,,,
43.0312500000,172,-1.1646705708,,,
43.0468750000,172,-2.0970764342,,,
43.0625000000,172,-0.1521969390,,,
43.0781250000,172,-1.2628218263,,,
43.0937500000,172,-2.8445219548,,,
43.1093750000,172,-4.8749550882,,,
43.1250000000,172,-2.2571822256,,,
43.1406250000,172,1.8681915664,,,
43.1562500000,172,-0.5551548605,,,
43.1718750000,172,-1.7037400064,,,
43.1875000000,172,0.6159059435,,,
43.2031250000,172,1.9212910480,,,
43.2187500000,172,0.8162823074,,,
43.2343750000,172,-0.4192121841,,,
43.2500000000,173,1.2910068853,,,
43.2656250000,173,1.1043154487,,,
43.2812500000,173,-0.6671837230,,,
43.2968750000,173,-2.3465291701,,,
43.3125000000,173,-3.9254902346,,,
43.3281250000,173,-1.1209890488,,,
43.3437500000,173,1.0076847233,,,
43.3593750000,173,0.9957689790,,,
43.3750000000,173,2.7200880221,,,
43.3906250000,173,2.8437323061,,,
43.4062500000,173,2.9906669095,,,
43.4218750000,173,3.6484374366,,,
43.4375000000,173,3.4922177783,,,
43.4531250000,173,3.8861972444,,,
43.4687500000,173,2.4735108285,,,
43.4843750000,173,-0.5755019300,,,
43.5000000000,174,-3.5135777334,,,
43.5156250000,174,-2.8575793426,,,
43.5312500000,174,0.1164186797,,,
43.5468750000,174,-1.6143642598,,,
43.5625000000,174,-3.0876242394,,,
43.5781250000,174,-2.2380492062,,,
43.5937500000,174,-1.5274637153,,,
43.6093750000,174,0.7603248120,,,
43.6250000000,174,0.1595004889,,,
43.6406250000,174,-1.3168913657,,,
43.6562500000,174,-0.7463362637,,,
43.6718750000,174,-0.2624368245,,,
43.6875000000,174,0.9626510702,,,
43.7031250000,174,0.4200919175,,,
43.7187500000,174,0.3452453923,,,
43.7343750000,174,0.0107480878,,,
43.7500000000,175,-2.9962136947,,,
43.7656250000,175,-1.2484370812,,,
43.7812500000,175,2.7494095135,,,
43.7968750000,175,2.4993206938,,,
43.8125000000,175,-1.6411355808,,,
43.8281250000,175,-4.1007835464,,,
43.8437500000,175,0.9899169865,,,
43.8593750000,175,4.2796618204,,,
43.8750000000,175,1.6458778036,,,
43.8906250000,175,-0.2648491180,,,
43.9062500000,175,-0.1808161975,,,
43.9218750000,175,1.7896729902,,,
43.9375000000,175,0.1309732325,,,
43.9531250000,175,-3.4667151847,,,
43.9687500000,175,-1.4647393585,,,
43.9843750000,175,1.0972419856,,,
44.0000000000,176,0.1977698906,,,
44.0156250000,176,-1.7355481892,,,
44.0312500000,176,-0.1380000099,,,
44.0468750000,176,3.2830437328,,,
44.0625000000,176,1.6443304355,,,
44.0781250000,176,-0.5251810285,,,
44.0937500000,176,-1.1198223648,,,
44.1093750000,176,-0.8031628535,,,
44.1250000000,176,1.3906672197,,,
44.1406250000,176,-1.4874318785,,,
44.1562500000,176,-4.2817513799,,,
44.1718750000,176,-1.2567923436,,,
44.1875000000,176,0.8668994457,,,
44.2031250000,176,1.2188769313,,,
44.2187500000,176,-0.3053133161,,,
44.2343750000,176,-0.9040497434,,,
44.2500000000,177,1.5858078214,,,
44.2656250000,177,2.6524801473,,,
44.2812500000,177,1.4305315005,,,
44.2968750000,177,-0.2829521841,,,
44.3125000000,177,2.0663659744,,,
44.3281250000,177,4.1202824918,,,
44.3437500000,177,1.4293579427,,,
44.3593750000,177,1.8687874344,,,
44.3750000000,177,1.5504172508,,,
44.3906250000,177,-2.7303529360,,,
44.4062500000,177,-3.5177435769,,,
44.4218750000,177,-1.5100998499,,,
44.4375000000,177,-1.3130998732,,,
44.4531250000,177,-3.5193323258,,,
44.4687500000,177,-2.7752966795,,,
44.4843750000,177,-0.6160272165,,,
44.5000000000,178,-1.8454670396,,,
44.5156250000,178,-0.7494315099,,,
44.5312500000,178,0.0470115946,,,
44.5468750000,178,-1.0074299713,,,
44.5625000000,178,1.8621952577,,,
44.5781250000,178,2.5952779580,,,
44.5937500000,178,0.9350372222,,,
44.6093750000,178,0.5081845197,,,
44.6250000000,178,-0.6451727495,,,
44.6406250000,178,0.1047025129,,,
44.6562500000,178,2.0205834344,,,
44.6718750000,178,3.1214194713,,,
44.6875000000,178,1.1450884084,,,
44.7031250000,178,-1.8166833517,,,
44.7187500000,178,-0.2072255071,,,
44.7343750000,178,-0.1255615218,,,
44.7500000000,179,-1.6614923497,,,
44.7656250000,179,0.6228101828,,,
44.7812500000,179,3.3249302640,,,
44.7968750000,179,3.4324759393,,,
44.8125000000,179,0.7489779370,,,
44.8281250000,179,-0.1227671095,,,
44.8437500000,179,-0.1480526876,,,
44.8593750000,179,-2.3785119080,,,
44.8750000000,179,-1.2721500076,,,
44.8906250000,179,-0.1821524614,,,
44.9062500000,179,-1.5330862496,,,
44.9218750000,179,-2.2206804179,,,
44.9375000000,179,-2.6829242129,,,
44.9531250000,179,0.2549426682,,,
44.9687500000,179,1.9992258644,,,
44.9843750000,179,-0.2585522173,,,
45.0000000000,180,-0.8874561795,,,
45.0156250000,180,-0.8055291461,,,
45.0312500000,180,1.2609978096,,,
45.0468750000,180,3.1955874239,,,
45.0625000000,180,-0.1064068353,,,
45.0781250000,180,-4.4960447689,,,
45.0937500000,180,-3.5284490249,,,
45.1093750000,180,3.1330393074,,,
45.1250000000,180,3.8149540857,,,
45.1406250000,180,-2.5147299033,,,
45.1562500000,180,-2.0747163899,,,
45.1718750000,180,2.2767429263,,,
45.1875000000,180,2.8476879746,,,
45.2031250000,180,0.3693151599,,,
45.2187500000,180,-0.4903741936,,,
45.2343750000,180,1.5112171105,,,
45.2500000000,181,-1.3743346268,,,
45.2656250000,181,-4.1267490764,,,
45.2812500000,181,-0.5444426528,,,
45.2968750000,181,1.5783965257,,,
45.3125000000,181,-0.5164580733,,,
45.3281250000,181,-3.0803809940,,,
45.3437500000,181,-0.5662471848,,,
45.3593750000,181,2.4492372186,,,
45.3750000000,181,0.7048270064,,,
45.3906250000,181,0.4956606809,,,
45.4062500000,181,-0.5890075393,,,
45.4218750000,181,-1.7916371912,,,
45.4375000000,181,1.6126293454,,,
45.4531250000,181,1.9441227232,,,
45.4687500000,181,0.3323351852,,,
45.4843750000,181,1.1132457141,,,
45.5000000000,182,1.4556764526,,,
45.5156250000,182,0.7188392180,,,
45.5312500000,182,0.4371885555,,,
45.5468750000,182,2.4204937496,,,
45.5625000000,182,1.1617055761,,,
45.5781250000,182,-2.2301128215,,,
45.5937500000,182,-0.5461811568,,,
45.6093750000,182,1.0226628313,,,
45.6250000000,182,0.5563093322,,,
45.6406250000,182,-0.2971872897,,,
45.6562500000,182,-1.9671747948,,,
45.6718750000,182,-0.9354138928,,,
45.6875000000,182,-1.1916777539,,,
45.7031250000,182,-4.0590598225,,,
45.7187500000,182,-2.4278409001,,,
45.7343750000,182,-0.1316578410,,,
45.7500000000,183,1.0353555893,,,
45.7656250000,183,3.3693360162,,,
45.7812500000,183,2.0433461576,,,
45.7968750000,183,0.7934414332,,,
45.8125000000,183,2.4270843381,,,
45.8281250000,183,2.2873051038,,,
45.8437500000,183,0.7380064535,,,
45.8593750000,183,0.0709797076,,,
45.8750000000,183,0.2785712163,,,
45.8906250000,183,-1.2581944090,,,
45.9062500000,183,-2.8564175616,,,
45.9218750000,183,-2.5767112033,,,
45.9375000000,183,-0.9767717059,,,
45.9531250000,183,-0.7010183816,,,
45.9687500000,183,-1.6329083447,,,
45.9843750000,183,1.0197998902,,,
46.0000000000,184,0.1572312656,,,
46.0156250000,184,0.0772394565,,,
46.0312500000,184,2.7930390546,,,
46.0468750000,184,-2.2091216844,,,
46.0625000000,184,-1.7504632856,,,
46.0781250000,184,1.0559926834,,,
46.0937500000,184,-1.6487203051,,,
46.1093750000,184,-0.3652675302,,,
46.1250000000,184,0.0752786924,,,
46.1406250000,184,1.5215309535,,,
46.1562500000,184,2.1325712127,,,
46.1718750000,184,-2.4966782535,,,
46.1875000000,184,-3.1974875332,,,
46.2031250000,184,-1.3906600425,,,
46.2187500000,184,-0.2691386939,,,
46.2343750000,184,-1.3962455595,,,
46.2500000000,185,-2.8244555987,,,
46.2656250000,185,2.3272359244,,,
46.2812500000,185,5.0174242170,,,
46.2968750000,185,0.2559298340,,,
46.3125000000,185,-3.0949572562,,,
46.3281250000,185,-0.1327616227,,,
46.3437500000,185,4.1441846839,,,
46.3593750000,185,0.7691359332,,,
46.3750000000,185,-1.1249993163,,,
46.3906250000,185,2.7616618128,,,
46.4062500000,185,1.1679135831,,,
46.4218750000,185,-0.6620607858,,,
46.4375000000,185,1.0493452097,,,
46.4531250000,185,0.8556754938,,,
46.4687500000,185,0.5332028652,,,
46.4843750000,185,2.4346039882,,,
46.5000000000,186,4.5789491824,,,
46.5156250000,186,1.5415540234,,,
46.5312500000,186,-2.0869934758,,,
46.5468750000,186,-0.4688567948,,,
46.5625000000,186,0.4126189991,,,
46.5781250000,186,-0.2125036341,,,
46.5937500000,186,-1.9729350793,,,
46.6093750000,186,-2.6491986880,,,
46.6250000000,186,-0.0989325940,,,
46.6406250000,186,-0.3234681159,,,
46.6562500000,186,-0.3671740241,,,
46.6718750000,186,0.7436294384,,,
46.6875000000,186,-0.9707821508,,,
46.7031250000,186,-2.1872857226,,,
46.7187500000,186,-2.2485284707,,,
46.7343750000,186,-0.4358635689,,,
46.7500000000,187,0.0434740365,,,
46.7656250000,187,-2.1042243514,,,
46.7812500000,187,0.3238181958,,,
46.7968750000,187,3.2831927867,,,
46.8125000000,187,2.0457017755,,,
46.8281250000,187,0.5213071907,,,
46.8437500000,187,-0.1322652410,,,
46.8593750000,187,-0.7360987884,,,
46.8750000000,187,-2.3369253591,,,
46.8906250000,187,-1.6725520775,,,
46.9062500000,187,0.0267564396,,,
46.9218750000,187,-0.4795182027,,,
46.9375000000,187,-0.0093153158,,,
46.9531250000,187,0.1558774846,,,
46.9687500000,187,1.3023242993,,,
46.9843750000,187,2.1406149126,,,
47.0000000000,188,-1.3861471940,,,
47.0156250000,188,-1.7727356759,,,
47.0312500000,188,0.4632087606,,,
47.0468750000,188,1.0094482458,,,
47.0625000000,188,1.0917445547,,,
47.0781250000,188,-1.9072807772,,,
47.0937500000,188,-3.9342835519,,,
47.1093750000,188,-1.8814513168,,,
47.1250000000,188,0.5125715151,,,
47.1406250000,188,1.0278616067,,,
47.1562500000,188,-0.4385261764,,,
47.1718750000,188,1.3037446756,,,
47.1875000000,188,3.6907055643,,,
47.2031250000,188,0.9814174070,,,
47.2187500000,188,-1.4968339239,,,
47.2343750000,188,-0.7387057302,,,
47.2500000000,189,3.0738250323,,,
47.2656250000,189,4.2313200381,,,
47.2812500000,189,-0.3603792980,,,
47.2968750000,189,-1.3356061168,,,
47.3125000000,189,0.6275336988,,,
47.3281250000,189,0.6357292629,,,
47.3437500000,189,-0.3596740660,,,
47.3593750000,189,-0.8826604174,,,
47.3750000000,189,0.4061917360,,,
47.3906250000,189,-0.9200650980,,,
47.4062500000,189,-2.6774166649,,,
47.4218750000,189,-1.7183589460,,,
47.4375000000,189,-1.3354962187,,,
47.4531250000,189,0.5482014546,,,
47.4687500000,189,1.0508250321,,,
47.4843750000,189,-0.2277909456,,,
47.5000000000,190,1.4791749487,,,
47.5156250000,190,1.8735820801,,,
47.5312500000,190,0.1801245135,,,
47.5468750000,190,-0.8025301135,,,
47.5625000000,190,0.0005491973,,,
47.5781250000,190,1.7841899035,,,
47.5937500000,190,0.1094683888,,,
47.6093750000,190,-1.1395820107,,,
47.6250000000,190,0.1380533031,,,
47.6406250000,190,-0.5082810376,,,
47.6562500000,190,-0.1750334328,,,
47.6718750000,190,-0.3204131817,,,
47.6875000000,190,-2.1086804889,,,
47.7031250000,190,-0.1020887526,,,
47.7187500000,190,-0.1704592049,,,
47.7343750000,190,-0.3358640785,,,
47.7500000000,191,4.3838488084,,,
47.7656250000,191,1.8768611044,,,
47.7812500000,191,-4.2148070376,,,
47.7968750000,191,-3.0775420342,,,
47.8125000000,191,0.2920659093,,,
47.8281250000,191,1.9188576911,,,
47.8437500000,191,2.4009268180,,,
47.8593750000,191,0.6146649415,,,
47.8750000000,191,-2.5135378509,,,
47.8906250000,191,-2.8095738215,,,
47.9062500000,191,-0.3187262901,,,
47.9218750000,191,4.8540987125,,,
47.9375000000,191,5.2904631733,,,
47.9531250000,191,-0.7397996163,,,
47.9687500000,191,0.5892462924,,,
47.9843750000,191,1.3522701080,,,
48.0000000000,192,-3.0839049557,,,
48.0156250000,192,-2.5924512656,,,
48.0312500000,192,-1.6202062150,,,
48.0468750000,192,-0.4899268516,,,
48.0625000000,192,-0.9590401142,,,
48.0781250000,192,-1.5774698017,,,
48.0937500000,192,0.9944059985,,,
48.1093750000,192,-0.9482889874,,,
48.1250000000,192,-1.2404821900,,,
48.1406250000,192,0.7931854480,,,
48.1562500000,192,1.6053860108,,,
48.1718750000,192,3.8099634079,,,
48.1875000000,192,-0.7294095644,,,
48.2031250000,192,-4.2416019915,,,
48.2187500000,192,-0.5868915011,,,
48.2343750000,192,0.1905125904,,,
48.2500000000,193,-0.9469863520,,,
48.2656250000,193,-1.4820909163,,,
48.2812500000,193,0.3345134870,,,
48.2968750000,193,1.8656693934,,,
48.3125000000,193,-0.5552581448,,,
48.3281250000,193,-0.6163423808,,,
48.3437500000,193,1.2184207246,,,
48.3593750000,193,2.5415432526,,,
48.3750000000,193,2.9500060531,,,
48.3906250000,193,0.2825354156,,,
48.4062500000,193,-0.4410402924,,,
48.4218750000,193,2.0754383274,,,
48.4375000000,193,4.7530356386,,,
48.4531250000,193,3.1442667095,,,
48.4687500000,193,-3.1445518389,,,
48.4843750000,193,-3.7320522453,,,
48.5000000000,194,-0.7574790588,,,
48.5156250000,194,-0.1513155634,,,
48.5312500000,194,0.2196484166,,,
48.5468750000,194,-1.2086795650,,,
48.5625000000,194,-0.5452597381,,,
48.5781250000,194,-1.7271654689,,,
48.5937500000,194,-11.8390316512,,,
48.6093750000,194,-17.6028657502,,,
48.6250000000,194,-7.4456781272,,,
48.6406250000,194,6.6251068151,,,
48.6562500000,194,4.6817306172,,,
48.6718750000,194,-1.7125089393,,,
48.6875000000,194,2.5824524324,,,
48.7031250000,194,2.8278930116,,,
48.7187500000,194,-0.3936061951,,,
48.7343750000,194,0.9855933712,,,
48.7500000000,195,2.5825462793,,,
48.7656250000,195,2.2143336477,,,
48.7812500000,195,-0.4910283519,,,
48.7968750000,195,4.3776331283,,,
48.8125000000,195,13.9051874702,,,
48.8281250000,195,13.8035575788,,,
48.8437500000,195,10.0963416470,,,
48.8593750000,195,9.4683020635,,,
48.8750000000,195,9.8587294533,,,
48.8906250000,195,8.2113392135,,,
48.9062500000,195,3.9402239433,,,
48.9218750000,195,3.4181154994,,,
48.9375000000,195,7.5181995632,,,
48.9531250000,195,12.5581257251,,,
48.9687500000,195,11.2573019312,,,
48.9843750000,195,-4.1574034106,,,
49.0000000000,196,-19.4224789796,,,
49.0156250000,196,-18.6159049360,,,
49.0312500000,196,-11.5564481607,,,
49.0468750000,196,-11.6883288157,,,
49.0625000000,196,-16.1254699210,,,
49.0781250000,196,-15.2150222368,,,
49.0937500000,196,-10.9599898600,,,
49.1093750000,196,-9.7536082997,,,
49.1250000000,196,-10.2205948491,,,
49.1406250000,196,-9.1046679182,,,
49.1562500000,196,-5.3141278115,,,
49.1718750000,196,-3.4604003218,,,
49.1875000000,196,-2.2789288923,,,
49.2031250000,196,0.5748046005,,,
49.2187500000,196,-0.4933535454,,,
49.2343750000,196,0.6616788562,,,
49.2500000000,197,4.4233412651,,,
49.2656250000,197,2.6519202534,,,
49.2812500000,197,1.5898532961,,,
49.2968750000,197,1.5576114168,,,
49.3125000000,197,0.6420401204,,,
49.3281250000,197,2.6023433629,,,
49.3437500000,197,4.2527986661,,,
49.3593750000,197,3.2950979989,,,
49.3750000000,197,1.3625350526,,,
49.3906250000,197,3.2538478441,,,
49.4062500000,197,6.2421209310,,,
49.4218750000,197,4.4362169107,,,
49.4375000000,197,3.6635520218,,,
49.4531250000,197,4.4204019178,,,
49.4687500000,197,5.8666796653,,,
49.4843750000,197,7.9648217747,,,
49.5000000000,198,4.9533709365,,,
49.5156250000,198,1.7379798132,,,
49.5312500000,198,2.7056860941,,,
49.5468750000,198,5.1969605788,,,
49.5625000000,198,5.2438628083,,,
49.5781250000,198,0.9561075532,,,
49.5937500000,198,-0.1448234065,,,
49.6093750000,198,0.0627743205,,,
49.6250000000,198,-2.2023109685,,,
49.6406250000,198,-0.2370227504,,,
49.6562500000,198,3.3286736051,,,
49.6718750000,198,2.8209795553,,,
49.6875000000,198,-1.7998783937,,,
49.7031250000,198,-2.8843473286,,,
49.7187500000,198,2.0244172271,,,
49.7343750000,198,0.9078679969,,,
49.7500000000,199,-2.2726982748,,,
49.7656250000,199,-0.9710996694,,,
49.7812500000,199,-2.3294206730,,,
49.7968750000,199,-5.2947208676,,,
49.8125000000,199,-5.9934145789,,,
49.8281250000,199,-2.4089955643,,,
49.8437500000,199,0.0238884989,,,
49.8593750000,199,-2.5940295629,,,
49.8750000000,199,-2.1465713430,,,
49.8906250000,199,-1.0489827437,,,
49.9062500000,199,-1.9941919572,,,
49.9218750000,199,-0.5542069790,,,
49.9375000000,199,1.5244287452,,,
49.9531250000,199,2.3358332438,,,
49.9687500000,199,-0.3447948762,,,
49.9843750000,199,-1.8622558713,,,
50.0000000000,200,-0.2549789600,,,
50.0156250000,200,-2.5244808969,,,
50.0312500000,200,-4.2975100913,,,
50.0468750000,200,-3.0001419582,,,
50.0625000000,200,-1.0872079260,,,
50.0781250000,200,1.0997029831,,,
50.0937500000,200,0.4772230048,,,
50.1093750000,200,0.0785557258,,,
50.1250000000,200,0.7821079981,,,
50.1406250000,200,1.5046988102,,,
50.1562500000,200,2.5614474717,,,
50.1718750000,200,2.0526896107,,,
50.1875000000,200,3.4769393514,,,
50.2031250000,200,0.6447146902,,,
50.2187500000,200,-3.9173876030,,,
50.2343750000,200,-0.2753301580,,,
50.2500000000,201,-20.8393413390,,,
50.2656250000,201,-58.2477323246,,,
50.2812500000,201,-38.6678140079,,,
50.2968750000,201,24.9228554570,,,
50.3125000000,201,41.2246065788,,,
50.3281250000,201,13.3010040283,,,
50.3437500000,201,12.2936759733,,,
50.3593750000,201,25.6001967530,,,
50.3750000000,201,18.6165367027,,,
50.3906250000,201,10.8978200365,,,
50.4062500000,201,10.4534190732,,,
50.4218750000,201,10.5591832223,,,
50.4375000000,201,4.8373716613,,,
50.4531250000,201,-0.9309405393,,,
50.4687500000,201,6.8317868955,,,
50.4843750000,201,5.9202730276,,,
50.5000000000,202,1.3615713650,,,
50.5156250000,202,37.8606812575,,,
50.5312500000,202,64.0776381714,,,
50.5468750000,202,18.9013505844,,,
50.5625000000,202,-24.3201205617,,,
50.5781250000,202,-20.5752448144,,,
50.5937500000,202,-23.5947800682,,,
50.6093750000,202,-44.5846967985,,,
50.6250000000,202,-48.7721763429,,,
50.6406250000,202,-34.9193238911,,,
50.6562500000,202,-25.9305775842,,,
50.6718750000,202,-22.8049023580,,,
50.6875000000,202,-16.1144572567,,,
50.7031250000,202,-10.9105269151,,,
50.7187500000,202,-11.9162185158,,,
50.7343750000,202,-12.6028818936,,,
50.7500000000,203,-9.5425630789,,,
50.7656250000,203,-6.6042927961,,,
50.7812500000,203,-0.6487882305,,,
50.7968750000,203,3.5559884191,,,
50.8125000000,203,2.7790271967,,,
50.8281250000,203,9.6966914413,,,
50.8437500000,203,15.5869313437,,,
50.8593750000,203,12.6879748035,,,
50.8750000000,203,11.5015002263,,,
50.8906250000,203,11.8100224767,,,
50.9062500000,203,13.0600208857,,,
50.9218750000,203,12.8504311904,,,
50.9375000000,203,9.7572651164,,,
50.9531250000,203,7.8233631958,,,
50.9687500000,203,6.8339736568,,,
50.9843750000,203,7.5188448724,,,
51.0000000000,204,5.1736764012,,,
51.0156250000,204,1.8708530943,,,
51.0312500000,204,2.8836898571,,,
51.0468750000,204,2.1689316152,,,
51.0625000000,204,4.0131000506,,,
51.0781250000,204,7.3394188458,,,
51.0937500000,204,6.8857663296,,,
51.1093750000,204,10.0582361419,,,
51.1250000000,204,10.3757499201,,,
51.1406250000,204,5.1670942868,,,
51.1562500000,204,8.8134739048,,,
51.1718750000,204,2.6088377306,,,
51.1875000000,204,-35.1929158427,,,
51.2031250000,204,-47.9122823707,,,
51.2187500000,204,1.3671470808,,,
51.2343750000,204,31.3854080490,,,
51.2500000000,205,10.5620514741,,,
51.2656250000,205,15.2538055939,,,
51.2812500000,205,44.7794941084,,,
51.2968750000,205,34.2016768690,,,
51.3125000000,205,-10.1325821393,,,
51.3281250000,205,-33.5145443367,,,
51.3437500000,205,-19.3568746045,,,
51.3593750000,205,-7.2988642401,,,
51.3750000000,205,-9.8648841895,,,
51.3906250000,205,-7.6820473134,,,
51.4062500000,205,-6.9270645877,,,
51.4218750000,205,-6.4084468754,,,
51.4375000000,205,-4.9716688868,,,
51.4531250000,205,-9.8063968045,,,
51.4687500000,205,-9.7049183317,,,
51.4843750000,205,-4.3389261371,,,
51.5000000000,206,-2.1091041603,,,
51.5156250000,206,-2.1263464451,,,
51.5312500000,206,-1.4452775207,,,
51.5468750000,206,1.6274675263,,,
51.5625000000,206,1.9793155576,,,
51.5781250000,206,0.1356095731,,,
51.5937500000,206,-0.8716536062,,,
51.6093750000,206,-1.5752232626,,,
51.6250000000,206,-1.2338007714,,,
51.6406250000,206,-2.8386893193,,,
51.6562500000,206,-4.0124866529,,,
51.6718750000,206,-3.8784226211,,,
51.6875000000,206,-2.9651270466,,,
51.7031250000,206,-0.1574342814,,,
51.7187500000,206,-1.3408580669,,,
51.7343750000,206,-1.6379220935,,,
51.7500000000,207,1.0205153463,,,
51.7656250000,207,-0.0293631084,,,
51.7812500000,207,0.5750540224,,,
51.7968750000,207,3.3505076220,,,
51.8125000000,207,5.1033295920,,,
51.8281250000,207,5.0907477893,,,
51.8437500000,207,3.2553847890,,,
51.8593750000,207,3.6050620623,,,
51.8750000000,207,2.3825232842,,,
51.8906250000,207,1.1203831009,,,
51.9062500000,207,1.3893085980,,,
51.9218750000,207,-1.6546866688,,,
51.9375000000,207,-0.2914209482,,,
51.9531250000,207,2.5891793681,,,
51.9687500000,207,1.2337755603,,,
51.9843750000,207,1.9308792230,,,
52.0000000000,208,2.5490559312,,,
52.0156250000,208,2.5896259740,,,
52.0312500000,208,1.0279766204,,,
52.0468750000,208,-0.5603548912,,,
52.0625000000,208,3.2408174673,,,
52.0781250000,208,4.4638647017,,,
52.0937500000,208,1.0540576785,,,
52.1093750000,208,-2.3333908235,,,
52.1250000000,208,-2.3289606518,,,
52.1406250000,208,1.4188343285,,,
52.1562500000,208,-0.1575156190,,,
52.1718750000,208,-3.7356259042,,,
52.1875000000,208,-3.7140847249,,,
52.2031250000,208,-1.7968548822,,,
52.2187500000,208,3.0247342975,,,
52.2343750000,208,3.3539353624,,,
52.2500000000,209,0.2456913034,,,
52.2656250000,209,0.0172597608,,,
52.2812500000,209,0.1784480489,,,
52.2968750000,209,0.0699305250,,,
52.3125000000,209,-1.0979250291,,,
52.3281250000,209,1.2568756895,,,
52.3437500000,209,2.4596837725,,,
52.3593750000,209,-4.0280598945,,,
52.3750000000,209,-4.1962115524,,,
52.3906250000,209,-0.1795011256,,,
52.4062500000,209,-0.9303399560,,,
52.4218750000,209,-0.4938825903,,,
52.4375000000,209,0.0068651731,,,
52.4531250000,209,0.0221566644,,,
52.4687500000,209,0.6024589364,,,
52.4843750000,209,1.7735355537,,,
52.5000000000,210,1.9932177021,,,
52.5156250000,210,-1.2098904903,,,
52.5312500000,210,-1.0639878486,,,
52.5468750000,210,0.2167458351,,,
52.5625000000,210,-0.6170247081,,,
52.5781250000,210,-0.0141781268,,,
52.5937500000,210,-1.9797108881,,,
52.6093750000,210,-1.2818230238,,,
52.6250000000,210,2.0566108258,,,
52.6406250000,210,0.1212855224,,,
52.6562500000,210,-1.2215738013,,,
52.6718750000,210,-1.3584989889,,,
52.6875000000,210,-1.0846116333,,,
52.7031250000,210,-0.0304563639,,,
52.7187500000,210,-0.8810467728,,,
52.7343750000,210,0.0301660354,,,
52.7500000000,211,1.8205016308,,,
52.7656250000,211,2.9592208158,,,
52.7812500000,211,0.1254169961,,,
52.7968750000,211,-4.4761935329,,,
52.8125000000,211,-1.5385073354,,,
52.8281250000,211,0.4111881615,,,
52.8437500000,211,-0.3747742009,,,
52.8593750000,211,1.4293979834,,,
52.8750000000,211,-0.0683497833,,,
52.8906250000,211,-1.7319368524,,,
52.9062500000,211,-0.6593658008,,,
52.9218750000,211,2.6515896910,,,
52.9375000000,211,3.7878170003,,,
52.9531250000,211,-0.8422768843,,,
52.9687500000,211,-0.0470381434,,,
52.9843750000,211,3.7299369455,,,
53.0000000000,212,2.8673727989,,,
53.0156250000,212,1.3775431061,,,
53.0312500000,212,-0.3164023473,,,
53.0468750000,212,-0.5356794348,,,
53.0625000000,212,-2.5097912729,,,
53.0781250000,212,-4.7366950686,,,
53.0937500000,212,-1.3789518707,,,
53.1093750000,212,1.3404164517,,,
53.1250000000,212,1.8619513864,,,
53.1406250000,212,-0.4063442468,,,
53.1562500000,212,-2.7599951470,,,
53.1718750000,212,0.3328585826,,,
53.1875000000,212,2.0661620177,,,
53.2031250000,212,2.9017694326,,,
53.2187500000,212,2.9558412240,,,
53.2343750000,212,-0.9024215906,,,
53.2500000000,213,-1.7012578504,,,
53.2656250000,213,-0.2960322229,,,
53.2812500000,213,0.6570137869,,,
53.2968750000,213,-0.8030664697,,,
53.3125000000,213,-3.4065384408,,,
53.3281250000,213,-0.4327765092,,,
53.3437500000,213,0.9873063618,,,
53.3593750000,213,-0.4040942948,,,
53.3750000000,213,0.1068865601,,,
53.3906250000,213,-1.0852277969,,,
53.4062500000,213,-1.1745877790,,,
53.4218750000,213,-0.4359196317,,,
53.4375000000,213,0.3106451012,,,
53.4531250000,213,1.7291346102,,,
53.4687500000,213,1.1555197761,,,
53.4843750000,213,2.0254280299,,,
53.5000000000,214,1.6583772540,,,
53.5156250000,214,0.0148511335,,,
53.5312500000,214,0.6598140590,,,
53.5468750000,214,-2.7689489226,,,
53.5625000000,214,-4.2840406958,,,
53.5781250000,214,-0.8751817159,,,
53.5937500000,214,-2.0978649460,,,
53.6093750000,214,-3.7134320280,,,
53.6250000000,214,-1.1341812032,,,
53.6406250000,214,1.5920334662,,,
53.6562500000,214,0.5919623518,,,
53.6718750000,214,-0.6724663882,,,
53.6875000000,214,3.1672520089,,,
53.7031250000,214,4.9062731438,,,
