Time:128Hz,Epoch,AF3,Event Id,Event Date,Event Duration
0.0000000000,0,4099.3588867188,,,
0.0078125000,0,4100.2563476563,,,
0.0156250000,0,4102.1796875000,,,
0.0234375000,0,4103.4614257813,,,
0.0312500000,0,4103.0771484375,,,
0.0390625000,0,4101.6665039063,,,
0.0468750000,0,4100.5126953125,,,
0.0546875000,0,4100.1284179688,,,
0.0625000000,0,4101.1538085938,,,
0.0703125000,0,4103.0771484375,,,
0.0781250000,0,4104.6152343750,,,
0.0859375000,0,4104.3588867188,,,
0.0937500000,0,4102.8203125000,,,
0.1015625000,0,4101.4101562500,,,
0.1093750000,0,4101.7949218750,,,
0.1171875000,0,4103.3334960938,,,
0.1250000000,0,4104.2309570313,,,
0.1328125000,0,4103.8461914063,,,
0.1406250000,0,4103.2050781250,,,
0.1484375000,0,4103.7177734375,,,
0.1562500000,0,4105.1284179688,,,
0.1640625000,0,4106.2822265625,,,
0.1718750000,0,4106.1538085938,,,
0.1796875000,0,4105.6411132813,,,
0.1875000000,0,4105.6411132813,,,
0.1953125000,0,4106.1538085938,,,
0.2031250000,0,4106.2822265625,,,
0.2109375000,0,4105.3847656250,,,
0.2187500000,0,4103.9741210938,,,
0.2265625000,0,4103.3334960938,,,
0.2343750000,0,4103.8461914063,,,
0.2421875000,0,4104.4873046875,,,
0.2500000000,1,4104.2309570313,,,
0.2578125000,1,4103.3334960938,,,
0.2656250000,1,4102.8203125000,,,
0.2734375000,1,4104.2309570313,,,
0.2812500000,1,4107.1796875000,,,
0.2890625000,1,4109.3588867188,,,
0.2968750000,1,4108.3334960938,33024,0.2998046875,0.0000000000
0.3046875000,1,4104.6152343750,,,
0.3125000000,1,4101.7949218750,,,
0.3203125000,1,4102.8203125000,,,
0.3281250000,1,4106.1538085938,,,
0.3359375000,1,4106.5385742188,,,
0.3437500000,1,4099.6152343750,,,
0.3515625000,1,4086.6667480469,,,
0.3593750000,1,4074.3588867188,,,
0.3671875000,1,4070.1281738281,,,
0.3750000000,1,4077.0512695313,,,
0.3828125000,1,4091.2819824219,,,
0.3906250000,1,4104.8715820313,,,
0.3984375000,1,4111.5385742188,,,
0.4062500000,1,4110.1284179688,,,
0.4140625000,1,4104.2309570313,,,
0.4218750000,1,4099.6152343750,,,
0.4296875000,1,4099.7436523438,,,
0.4375000000,1,4104.3588867188,,,
0.4453125000,1,4110.0000000000,,,
0.4531250000,1,4113.0771484375,,,
0.4609375000,1,4113.2050781250,,,
0.4687500000,1,4111.9228515625,,,
0.4765625000,1,4111.5385742188,,,
0.4843750000,1,4113.0771484375,,,
0.4921875000,1,4115.8974609375,,,
0.5000000000,2,4118.3334960938,,,
0.5078125000,2,4118.9741210938,,,
0.5156250000,2,4117.1796875000,,,
0.5234375000,2,4114.2309570313,,,
0.5312500000,2,4112.0512695313,,,
0.5390625000,2,4111.7949218750,,,
0.5468750000,2,4112.5639648438,,,
0.5546875000,2,4112.6923828125,,,
0.5625000000,2,4111.4101562500,,,
0.5703125000,2,4109.7436523438,,,
0.5781250000,2,4109.2309570313,,,
0.5859375000,2,4110.3847656250,,,
0.5937500000,2,4112.1796875000,33024,0.5996093750,0.0000000000
0.6015625000,2,4113.2050781250,,,
0.6093750000,2,4112.6923828125,,,
0.6171875000,2,4111.1538085938,,,
0.6250000000,2,4109.6152343750,,,
0.6328125000,2,4108.5898437500,,,
0.6406250000,2,4107.5639648438,,,
0.6484375000,2,4106.4101562500,,,
0.6562500000,2,4105.3847656250,,,
0.6640625000,2,4105.3847656250,,,
0.6718750000,2,4106.6665039063,,,
0.6796875000,2,4108.3334960938,,,
0.6875000000,2,4109.2309570313,,,
0.6953125000,2,4108.8461914063,,,
0.7031250000,2,4108.0771484375,,,
0.7109375000,2,4107.9487304688,,,
0.7187500000,2,4108.2050781250,,,
0.7265625000,2,4107.6923828125,,,
0.7343750000,2,4105.7690429688,,,
0.7421875000,2,4103.7177734375,,,
0.7500000000,3,4103.0771484375,,,
0.7578125000,3,4104.1025390625,,,
0.7656250000,3,4105.0000000000,,,
0.7734375000,3,4104.2309570313,,,
0.7812500000,3,4101.7949218750,,,
0.7890625000,3,4099.8715820313,,,
0.7968750000,3,4099.8715820313,,,
0.8046875000,3,4101.2822265625,,,
0.8125000000,3,4102.5639648438,,,
0.8203125000,3,4103.0771484375,,,
0.8281250000,3,4103.3334960938,,,
0.8359375000,3,4104.3588867188,,,
0.8437500000,3,4105.7690429688,,,
0.8515625000,3,4106.1538085938,,,
0.8593750000,3,4104.7436523438,,,
0.8671875000,3,4102.1796875000,,,
0.8750000000,3,4100.0000000000,,,
0.8828125000,3,4099.1025390625,,,
0.8906250000,3,4099.8715820313,,,
0.8984375000,3,4102.1796875000,33024,0.8994140625,0.0000000000
0.9062500000,3,4105.2563476563,,,
0.9140625000,3,4107.1796875000,,,
0.9218750000,3,4106.2822265625,,,
0.9296875000,3,4103.5898437500,,,
0.9375000000,3,4101.9228515625,,,
0.9453125000,3,4103.9741210938,,,
0.9531250000,3,4107.9487304688,,,
0.9609375000,3,4108.2050781250,,,
0.9687500000,3,4100.0000000000,,,
0.9765625000,3,4085.3845214844,,,
0.9843750000,3,4072.4357910156,,,
0.9921875000,3,4070.2563476563,,,
1.0000000000,4,4080.0000000000,,,
1.0078125000,4,4094.7436523438,,,
1.0156250000,4,4104.7436523438,,,
1.0234375000,4,4105.1284179688,,,
1.0312500000,4,4098.5898437500,,,
1.0390625000,4,4092.3076171875,,,
1.0468750000,4,4091.2819824219,,,
1.0546875000,4,4095.0000000000,,,
1.0625000000,4,4098.8461914063,,,
1.0703125000,4,4099.2309570313,,,
1.0781250000,4,4097.0512695313,,,
1.0859375000,4,4096.5385742188,,,
1.0937500000,4,4100.1284179688,,,
1.1015625000,4,4106.4101562500,,,
1.1093750000,4,4111.4101562500,,,
1.1171875000,4,4112.5639648438,,,
1.1250000000,4,4110.5126953125,,,
1.1328125000,4,4107.6923828125,,,
1.1406250000,4,4105.7690429688,,,
1.1484375000,4,4104.6152343750,,,
1.1562500000,4,4103.0771484375,,,
1.1640625000,4,4101.2822265625,,,
1.1718750000,4,4099.8715820313,,,
1.1796875000,4,4099.1025390625,,,
1.1875000000,4,4098.5898437500,,,
1.1953125000,4,4098.3334960938,33024,1.1992187500,0.0000000000
1.2031250000,4,4098.8461914063,,,
1.2109375000,4,4100.2563476563,,,
1.2187500000,4,4101.6665039063,,,
1.2265625000,4,4102.5639648438,,,
1.2343750000,4,4102.9487304688,,,
1.2421875000,4,4103.4614257813,,,
1.2500000000,5,4103.8461914063,,,
1.2578125000,5,4103.5898437500,,,
1.2656250000,5,4103.8461914063,,,
1.2734375000,5,4107.1796875000,,,
1.2812500000,5,4116.7949218750,,,
1.2890625000,5,4131.7949218750,,,
1.2968750000,5,4147.1796875000,,,
1.3046875000,5,4155.7690429688,,,
1.3125000000,5,4152.6923828125,,,
1.3203125000,5,4138.5898437500,,,
1.3281250000,5,4118.9741210938,,,
1.3359375000,5,4102.1796875000,,,
1.3437500000,5,4094.2307128906,,,
1.3515625000,5,4095.0000000000,,,
1.3593750000,5,4098.5898437500,,,
1.3671875000,5,4098.5898437500,,,
1.3750000000,5,4094.8718261719,,,
1.3828125000,5,4092.3076171875,,,
1.3906250000,5,4094.2307128906,,,
1.3984375000,5,4098.2050781250,,,
1.4062500000,5,4099.4873046875,,,
1.4140625000,5,4097.3076171875,,,
1.4218750000,5,4095.6411132813,,,
1.4296875000,5,4098.2050781250,,,
1.4375000000,5,4102.4360351563,,,
1.4453125000,5,4103.4614257813,,,
1.4531250000,5,4100.2563476563,,,
1.4609375000,5,4097.8203125000,,,
1.4687500000,5,4099.7436523438,,,
1.4765625000,5,4103.3334960938,,,
1.4843750000,5,4101.0258789063,,,
1.4921875000,5,4090.2563476563,33024,1.4990234375,0.0000000000
1.5000000000,6,4077.0512695313,,,
1.5078125000,6,4070.6411132813,,,
1.5156250000,6,4075.1281738281,,,
1.5234375000,6,4086.6667480469,,,
1.5312500000,6,4098.4614257813,,,
1.5390625000,6,4105.8974609375,,,
1.5468750000,6,4108.0771484375,,,
1.5546875000,6,4107.0512695313,,,
1.5625000000,6,4106.0258789063,,,
1.5703125000,6,4107.5639648438,,,
1.5781250000,6,4111.2822265625,,,
1.5859375000,6,4114.6152343750,,,
1.5937500000,6,4115.5126953125,,,
1.6015625000,6,4114.1025390625,,,
1.6093750000,6,4112.6923828125,,,
1.6171875000,6,4112.8203125000,,,
1.6250000000,6,4114.3588867188,,,
1.6328125000,6,4115.2563476563,,,
1.6406250000,6,4114.4873046875,,,
1.6484375000,6,4113.0771484375,,,
1.6562500000,6,4112.0512695313,,,
1.6640625000,6,4111.1538085938,,,
1.6718750000,6,4110.0000000000,,,
1.6796875000,6,4109.4873046875,,,
1.6875000000,6,4111.1538085938,,,
1.6953125000,6,4115.0000000000,,,
1.7031250000,6,4118.0771484375,,,
1.7109375000,6,4117.4360351563,,,
1.7187500000,6,4113.3334960938,,,
1.7265625000,6,4108.3334960938,,,
1.7343750000,6,4105.3847656250,,,
1.7421875000,6,4104.8715820313,,,
1.7500000000,7,4105.3847656250,,,
1.7578125000,7,4105.3847656250,,,
1.7656250000,7,4104.8715820313,,,
1.7734375000,7,4104.6152343750,,,
1.7812500000,7,4105.1284179688,,,
1.7890625000,7,4105.6411132813,,,
1.7968750000,7,4105.5126953125,33024,1.7998046875,0.0000000000
1.8046875000,7,4104.4873046875,,,
1.8125000000,7,4103.2050781250,,,
1.8203125000,7,4102.0512695313,,,
1.8281250000,7,4101.0258789063,,,
1.8359375000,7,4100.1284179688,,,
1.8437500000,7,4099.6152343750,,,
1.8515625000,7,4100.2563476563,,,
1.8593750000,7,4101.6665039063,,,
1.8671875000,7,4102.9487304688,,,
1.8750000000,7,4103.2050781250,,,
1.8828125000,7,4102.5639648438,,,
1.8906250000,7,4101.7949218750,,,
1.8984375000,7,4101.9228515625,,,
1.9062500000,7,4103.0771484375,,,
1.9140625000,7,4104.2309570313,,,
1.9218750000,7,4104.3588867188,,,
1.9296875000,7,4103.9741210938,,,
1.9375000000,7,4103.8461914063,,,
1.9453125000,7,4104.7436523438,,,
1.9531250000,7,4105.6411132813,,,
1.9609375000,7,4105.8974609375,,,
1.9687500000,7,4105.3847656250,,,
1.9765625000,7,4104.7436523438,,,
1.9843750000,7,4104.6152343750,,,
1.9921875000,7,4104.6152343750,,,
2.0000000000,8,4104.4873046875,,,
2.0078125000,8,4104.7436523438,,,
2.0156250000,8,4106.1538085938,,,
2.0234375000,8,4108.4614257813,,,
2.0312500000,8,4109.4873046875,,,
2.0390625000,8,4107.6923828125,,,
2.0468750000,8,4103.5898437500,,,
2.0546875000,8,4099.8715820313,,,
2.0625000000,8,4098.7177734375,,,
2.0703125000,8,4099.7436523438,,,
2.0781250000,8,4100.7690429688,,,
2.0859375000,8,4100.6411132813,,,
2.0937500000,8,4100.5126953125,33024,2.0996093750,0.0000000000
2.1015625000,8,4101.9228515625,,,
2.1093750000,8,4104.7436523438,,,
2.1171875000,8,4107.0512695313,,,
2.1250000000,8,4107.5639648438,,,
2.1328125000,8,4106.4101562500,,,
2.1406250000,8,4105.0000000000,,,
2.1484375000,8,4103.4614257813,,,
2.1562500000,8,4102.0512695313,,,
2.1640625000,8,4101.2822265625,,,
2.1718750000,8,4101.7949218750,,,
2.1796875000,8,4103.4614257813,,,
2.1875000000,8,4104.7436523438,,,
2.1953125000,8,4104.4873046875,,,
2.2031250000,8,4103.0771484375,,,
2.2109375000,8,4102.4360351563,,,
2.2187500000,8,4103.5898437500,,,
2.2265625000,8,4105.8974609375,,,
2.2343750000,8,4106.7949218750,,,
2.2421875000,8,4105.2563476563,,,
2.2500000000,9,4102.8203125000,,,
2.2578125000,9,4102.1796875000,,,
2.2656250000,9,4104.2309570313,,,
2.2734375000,9,4107.4360351563,,,
2.2812500000,9,4110.1284179688,,,
2.2890625000,9,4112.5639648438,,,
2.2968750000,9,4116.1538085938,,,
2.3046875000,9,4122.3076171875,,,
2.3125000000,9,4129.1025390625,,,
2.3203125000,9,4132.9487304688,,,
2.3281250000,9,4131.1538085938,,,
2.3359375000,9,4123.8461914063,,,
2.3437500000,9,4113.9741210938,,,
2.3515625000,9,4105.8974609375,,,
2.3593750000,9,4102.6923828125,,,
2.3671875000,9,4103.9741210938,,,
2.3750000000,9,4107.1796875000,,,
2.3828125000,9,4108.4614257813,,,
2.3906250000,9,4106.1538085938,,,
2.3984375000,9,4101.9228515625,33024,2.3994140625,0.0000000000
2.4062500000,9,4099.6152343750,,,
2.4140625000,9,4101.2822265625,,,
2.4218750000,9,4105.0000000000,,,
2.4296875000,9,4106.5385742188,,,
2.4375000000,9,4104.3588867188,,,
2.4453125000,9,4100.8974609375,,,
2.4531250000,9,4100.2563476563,,,
2.4609375000,9,4102.9487304688,,,
2.4687500000,9,4105.7690429688,,,
2.4765625000,9,4104.7436523438,,,
2.4843750000,9,4099.4873046875,,,
2.4921875000,9,4093.4614257813,,,
2.5000000000,10,4089.7436523438,,,
2.5078125000,10,4089.2307128906,,,
2.5156250000,10,4090.6411132813,,,
2.5234375000,10,4092.6923828125,,,
2.5312500000,10,4095.2563476563,,,
2.5390625000,10,4097.9487304688,,,
2.5468750000,10,4099.6152343750,,,
2.5546875000,10,4099.3588867188,,,
2.5625000000,10,4098.0771484375,,,
2.5703125000,10,4097.1796875000,,,
2.5781250000,10,4097.1796875000,,,
2.5859375000,10,4097.3076171875,,,
2.5937500000,10,4096.9228515625,,,
2.6015625000,10,4097.0512695313,,,
2.6093750000,10,4098.5898437500,,,
2.6171875000,10,4101.0258789063,,,
2.6250000000,10,4102.0512695313,,,
2.6328125000,10,4101.1538085938,,,
2.6406250000,10,4100.0000000000,,,
2.6484375000,10,4100.6411132813,,,
2.6562500000,10,4102.6923828125,,,
2.6640625000,10,4103.7177734375,,,
2.6718750000,10,4102.3076171875,,,
2.6796875000,10,4099.8715820313,,,
2.6875000000,10,4098.9741210938,,,
2.6953125000,10,4100.7690429688,33024,2.6992187500,0.0000000000
2.7031250000,10,4102.4360351563,,,
2.7109375000,10,4101.6665039063,,,
2.7187500000,10,4098.7177734375,,,
2.7265625000,10,4097.1796875000,,,
2.7343750000,10,4099.7436523438,,,
2.7421875000,10,4104.6152343750,,,
2.7500000000,11,4107.9487304688,,,
2.7578125000,11,4106.9228515625,,,
2.7656250000,11,4103.4614257813,,,
2.7734375000,11,4100.8974609375,,,
2.7812500000,11,4101.1538085938,,,
2.7890625000,11,4103.3334960938,,,
2.7968750000,11,4105.5126953125,,,
2.8046875000,11,4106.7949218750,,,
2.8125000000,11,4107.5639648438,,,
2.8203125000,11,4107.5639648438,,,
2.8281250000,11,4106.6665039063,,,
2.8359375000,11,4105.0000000000,,,
2.8437500000,11,4104.3588867188,,,
2.8515625000,11,4105.2563476563,,,
2.8593750000,11,4106.4101562500,,,
2.8671875000,11,4105.6411132813,,,
2.8750000000,11,4103.2050781250,,,
2.8828125000,11,4100.3847656250,,,
2.8906250000,11,4098.3334960938,,,
2.8984375000,11,4096.0258789063,,,
2.9062500000,11,4093.3332519531,,,
2.9140625000,11,4091.9230957031,,,
2.9218750000,11,4093.7180175781,,,
2.9296875000,11,4098.8461914063,,,
2.9375000000,11,4104.1025390625,,,
2.9453125000,11,4106.4101562500,,,
2.9531250000,11,4105.0000000000,,,
2.9609375000,11,4102.4360351563,,,
2.9687500000,11,4101.0258789063,,,
2.9765625000,11,4100.6411132813,,,
2.9843750000,11,4099.8715820313,,,
2.9921875000,11,4098.7177734375,33024,2.9990234375,0.0000000000
3.0000000000,12,4098.5898437500,,,
3.0078125000,12,4100.6411132813,,,
3.0156250000,12,4103.0771484375,,,
3.0234375000,12,4103.5898437500,,,
3.0312500000,12,4101.7949218750,,,
3.0390625000,12,4099.7436523438,,,
3.0468750000,12,4099.7436523438,,,
3.0546875000,12,4101.4101562500,,,
3.0625000000,12,4103.0771484375,,,
3.0703125000,12,4103.9741210938,,,
3.0781250000,12,4104.3588867188,,,
3.0859375000,12,4105.2563476563,,,
3.0937500000,12,4106.1538085938,,,
3.1015625000,12,4106.1538085938,,,
3.1093750000,12,4105.1284179688,,,
3.1171875000,12,4105.0000000000,,,
3.1250000000,12,4107.0512695313,,,
3.1328125000,12,4109.8715820313,,,
3.1406250000,12,4109.8715820313,,,
3.1484375000,12,4105.5126953125,,,
3.1562500000,12,4100.3847656250,,,
3.1640625000,12,4099.7436523438,,,
3.1718750000,12,4104.4873046875,,,
3.1796875000,12,4109.2309570313,,,
3.1875000000,12,4107.6923828125,,,
3.1953125000,12,4098.7177734375,,,
3.2031250000,12,4086.5385742188,,,
3.2109375000,12,4077.9487304688,,,
3.2187500000,12,4077.0512695313,,,
3.2265625000,12,4083.2050781250,,,
3.2343750000,12,4092.8205566406,,,
3.2421875000,12,4101.7949218750,,,
3.2500000000,13,4108.2050781250,,,
3.2578125000,13,4112.9487304688,,,
3.2656250000,13,4118.3334960938,,,
3.2734375000,13,4125.1284179688,,,
3.2812500000,13,4130.3847656250,,,
3.2890625000,13,4130.2563476563,,,
3.2968750000,13,4122.3076171875,33024,3.2998046875,0.0000000000
3.3046875000,13,4109.7436523438,,,
3.3125000000,13,4099.1025390625,,,
3.3203125000,13,4095.2563476563,,,
3.3281250000,13,4097.6923828125,,,
3.3359375000,13,4101.5385742188,,,
3.3437500000,13,4102.5639648438,,,
3.3515625000,13,4101.0258789063,,,
3.3593750000,13,4099.1025390625,,,
3.3671875000,13,4097.8203125000,,,
3.3750000000,13,4096.9228515625,,,
3.3828125000,13,4096.2822265625,,,
3.3906250000,13,4097.5639648438,,,
3.3984375000,13,4101.7949218750,,,
3.4062500000,13,4106.9228515625,,,
3.4140625000,13,4109.1025390625,,,
3.4218750000,13,4107.4360351563,,,
3.4296875000,13,4105.1284179688,,,
3.4375000000,13,4107.9487304688,,,
3.4453125000,13,4118.3334960938,,,
3.4531250000,13,4132.6923828125,,,
3.4609375000,13,4143.5898437500,,,
3.4687500000,13,4145.3847656250,,,
3.4765625000,13,4137.8203125000,,,
3.4843750000,13,4124.8715820313,,,
3.4921875000,13,4112.1796875000,,,
3.5000000000,14,4104.2309570313,,,
3.5078125000,14,4102.5639648438,,,
3.5156250000,14,4105.2563476563,,,
3.5234375000,14,4107.6923828125,,,
3.5312500000,14,4106.6665039063,,,
3.5390625000,14,4103.3334960938,,,
3.5468750000,14,4100.7690429688,,,
3.5546875000,14,4100.6411132813,,,
3.5625000000,14,4101.7949218750,,,
3.5703125000,14,4102.1796875000,,,
3.5781250000,14,4102.3076171875,,,
3.5859375000,14,4103.5898437500,,,
3.5937500000,14,4105.6411132813,33024,3.5996093750,0.0000000000
3.6015625000,14,4106.0258789063,,,
3.6093750000,14,4103.0771484375,,,
3.6171875000,14,4098.4614257813,,,
3.6250000000,14,4096.2822265625,,,
3.6328125000,14,4098.3334960938,,,
3.6406250000,14,4102.3076171875,,,
3.6484375000,14,4104.6152343750,,,
3.6562500000,14,4103.8461914063,,,
3.6640625000,14,4102.3076171875,,,
3.6718750000,14,4102.4360351563,,,
3.6796875000,14,4104.2309570313,,,
3.6875000000,14,4105.1284179688,,,
3.6953125000,14,4104.3588867188,,,
3.7031250000,14,4103.0771484375,,,
3.7109375000,14,4103.3334960938,,,
3.7187500000,14,4105.0000000000,,,
3.7265625000,14,4106.4101562500,,,
3.7343750000,14,4105.8974609375,,,
3.7421875000,14,4104.3588867188,,,
3.7500000000,15,4103.2050781250,,,
3.7578125000,15,4103.0771484375,,,
3.7656250000,15,4103.4614257813,,,
3.7734375000,15,4103.4614257813,,,
3.7812500000,15,4103.2050781250,,,
3.7890625000,15,4103.5898437500,,,
3.7968750000,15,4104.4873046875,,,
3.8046875000,15,4105.0000000000,,,
3.8125000000,15,4104.4873046875,,,
3.8203125000,15,4103.2050781250,,,
3.8281250000,15,4102.5639648438,,,
3.8359375000,15,4103.5898437500,,,
3.8437500000,15,4105.5126953125,,,
3.8515625000,15,4107.0512695313,,,
3.8593750000,15,4107.4360351563,,,
3.8671875000,15,4106.4101562500,,,
3.8750000000,15,4104.8715820313,,,
3.8828125000,15,4103.5898437500,,,
3.8906250000,15,4103.0771484375,,,
3.8984375000,15,4103.2050781250,33024,3.8994140625,0.0000000000
3.9062500000,15,4103.9741210938,,,
3.9140625000,15,4104.6152343750,,,
3.9218750000,15,4104.6152343750,,,
3.9296875000,15,4103.7177734375,,,
3.9375000000,15,4102.5639648438,,,
3.9453125000,15,4102.1796875000,,,
3.9531250000,15,4103.4614257813,,,
3.9609375000,15,4105.3847656250,,,
3.9687500000,15,4105.7690429688,,,
3.9765625000,15,4103.4614257813,,,
3.9843750000,15,4100.3847656250,,,
3.9921875000,15,4100.6411132813,,,
4.0000000000,16,4105.5126953125,,,
4.0078125000,16,4109.7436523438,,,
4.0156250000,16,4106.1538085938,,,
4.0234375000,16,4092.4357910156,,,
4.0312500000,16,4075.2563476563,,,
4.0390625000,16,4065.1281738281,,,
4.0468750000,16,4068.3332519531,,,
4.0546875000,16,4082.1794433594,,,
4.0625000000,16,4097.6923828125,,,
4.0703125000,16,4106.6665039063,,,
4.0781250000,16,4107.0512695313,,,
4.0859375000,16,4102.6923828125,,,
4.0937500000,16,4099.4873046875,,,
4.1015625000,16,4100.3847656250,,,
4.1093750000,16,4105.3847656250,,,
4.1171875000,16,4111.4101562500,,,
4.1250000000,16,4115.0000000000,,,
4.1328125000,16,4114.2309570313,,,
4.1406250000,16,4109.6152343750,,,
4.1484375000,16,4104.6152343750,,,
4.1562500000,16,4101.4101562500,,,
4.1640625000,16,4100.0000000000,,,
4.1718750000,16,4098.3334960938,,,
4.1796875000,16,4095.2563476563,,,
4.1875000000,16,4091.6667480469,,,
4.1953125000,16,4089.6154785156,33024,4.1992187500,0.0000000000
4.2031250000,16,4090.2563476563,,,
4.2109375000,16,4092.5642089844,,,
4.2187500000,16,4094.7436523438,,,
4.2265625000,16,4096.5385742188,,,
4.2343750000,16,4099.2309570313,,,
4.2421875000,16,4102.3076171875,,,
4.2500000000,17,4103.4614257813,,,
4.2578125000,17,4100.8974609375,,,
4.2656250000,17,4096.2822265625,,,
4.2734375000,17,4093.3332519531,,,
4.2812500000,17,4093.9743652344,,,
4.2890625000,17,4096.1538085938,,,
4.2968750000,17,4097.4360351563,,,
4.3046875000,17,4097.4360351563,,,
4.3125000000,17,4097.9487304688,,,
4.3203125000,17,4099.8715820313,,,
4.3281250000,17,4102.6923828125,,,
4.3359375000,17,4105.2563476563,,,
4.3437500000,17,4106.9228515625,,,
4.3515625000,17,4108.3334960938,,,
4.3593750000,17,4109.4873046875,,,
4.3671875000,17,4109.6152343750,,,
4.3750000000,17,4108.3334960938,,,
4.3828125000,17,4106.5385742188,,,
4.3906250000,17,4105.3847656250,,,
4.3984375000,17,4105.2563476563,,,
4.4062500000,17,4105.3847656250,,,
4.4140625000,17,4106.0258789063,,,
4.4218750000,17,4108.3334960938,,,
4.4296875000,17,4112.4360351563,,,
4.4375000000,17,4115.6411132813,,,
4.4453125000,17,4114.7436523438,,,
4.4531250000,17,4109.7436523438,,,
4.4609375000,17,4104.1025390625,,,
4.4687500000,17,4101.4101562500,,,
4.4765625000,17,4102.9487304688,,,
4.4843750000,17,4106.4101562500,,,
4.4921875000,17,4108.2050781250,33024,4.4990234375,0.0000000000
4.5000000000,18,4106.2822265625,,,
4.5078125000,18,4101.7949218750,,,
4.5156250000,18,4097.8203125000,,,
4.5234375000,18,4096.1538085938,,,
4.5312500000,18,4096.7949218750,,,
4.5390625000,18,4098.3334960938,,,
4.5468750000,18,4100.3847656250,,,
4.5546875000,18,4102.6923828125,,,
4.5625000000,18,4104.7436523438,,,
4.5703125000,18,4106.4101562500,,,
4.5781250000,18,4107.1796875000,,,
4.5859375000,18,4106.7949218750,,,
4.5937500000,18,4104.8715820313,,,
4.6015625000,18,4102.1796875000,,,
4.6093750000,18,4100.3847656250,,,
4.6171875000,18,4101.1538085938,,,
4.6250000000,18,4104.2309570313,,,
4.6328125000,18,4106.7949218750,,,
4.6406250000,18,4106.1538085938,,,
4.6484375000,18,4102.6923828125,,,
4.6562500000,18,4099.2309570313,,,
4.6640625000,18,4098.8461914063,,,
4.6718750000,18,4101.2822265625,,,
4.6796875000,18,4103.5898437500,,,
4.6875000000,18,4103.4614257813,,,
4.6953125000,18,4101.9228515625,,,
4.7031250000,18,4102.1796875000,,,
4.7109375000,18,4105.3847656250,,,
4.7187500000,18,4109.1025390625,,,
4.7265625000,18,4110.3847656250,,,
4.7343750000,18,4108.8461914063,,,
4.7421875000,18,4106.1538085938,,,
4.7500000000,19,4104.6152343750,,,
4.7578125000,19,4104.6152343750,,,
4.7656250000,19,4105.7690429688,,,
4.7734375000,19,4107.4360351563,,,
4.7812500000,19,4108.8461914063,,,
4.7890625000,19,4109.4873046875,,,
4.7968750000,19,4108.7177734375,33024,4.7998046875,0.0000000000
4.8046875000,19,4106.6665039063,,,
4.8125000000,19,4104.4873046875,,,
4.8203125000,19,4103.3334960938,,,
4.8281250000,19,4104.2309570313,,,
4.8359375000,19,4106.5385742188,,,
4.8437500000,19,4108.9741210938,,,
4.8515625000,19,4109.7436523438,,,
4.8593750000,19,4108.7177734375,,,
4.8671875000,19,4106.1538085938,,,
4.8750000000,19,4102.1796875000,,,
4.8828125000,19,4097.9487304688,,,
4.8906250000,19,4095.6411132813,,,
4.8984375000,19,4097.4360351563,,,
4.9062500000,19,4103.4614257813,,,
4.9140625000,19,4109.4873046875,,,
4.9218750000,19,4109.8715820313,,,
4.9296875000,19,4101.2822265625,,,
4.9375000000,19,4085.3845214844,,,
4.9453125000,19,4069.6154785156,,,
4.9531250000,19,4063.3332519531,,,
4.9609375000,19,4071.2819824219,,,
4.9687500000,19,4090.6411132813,,,
4.9765625000,19,4112.9487304688,,,
4.9843750000,19,4128.2050781250,,,
4.9921875000,19,4131.4101562500,,,
5.0000000000,20,4124.2309570313,,,
5.0078125000,20,4113.4614257813,,,
5.0156250000,20,4105.8974609375,,,
5.0234375000,20,4103.7177734375,,,
5.0312500000,20,4104.6152343750,,,
5.0390625000,20,4105.3847656250,,,
5.0468750000,20,4105.0000000000,,,
5.0546875000,20,4104.3588867188,,,
5.0625000000,20,4104.2309570313,,,
5.0703125000,20,4104.2309570313,,,
5.0781250000,20,4104.1025390625,,,
5.0859375000,20,4104.1025390625,,,
5.0937500000,20,4104.6152343750,33024,5.0996093750,0.0000000000
5.1015625000,20,4105.5126953125,,,
5.1093750000,20,4106.4101562500,,,
5.1171875000,20,4107.4360351563,,,
5.1250000000,20,4108.5898437500,,,
5.1328125000,20,4109.4873046875,,,
5.1406250000,20,4109.3588867188,,,
5.1484375000,20,4107.5639648438,,,
5.1562500000,20,4106.6665039063,,,
5.1640625000,20,4111.9228515625,,,
5.1718750000,20,4126.6665039063,,,
5.1796875000,20,4147.4360351563,,,
5.1875000000,20,4165.0000000000,,,
5.1953125000,20,4169.8715820313,,,
5.2031250000,20,4159.2309570313,,,
5.2109375000,20,4138.5898437500,,,
5.2187500000,20,4117.5639648438,,,
5.2265625000,20,4103.9741210938,,,
5.2343750000,20,4100.1284179688,,,
5.2421875000,20,4102.9487304688,,,
5.2500000000,21,4107.3076171875,,,
5.2578125000,21,4108.9741210938,,,
5.2656250000,21,4107.3076171875,,,
5.2734375000,21,4104.3588867188,,,
5.2812500000,21,4102.9487304688,,,
5.2890625000,21,4103.4614257813,,,
5.2968750000,21,4104.6152343750,,,
5.3046875000,21,4104.7436523438,,,
5.3125000000,21,4103.5898437500,,,
5.3203125000,21,4102.0512695313,,,
5.3281250000,21,4101.1538085938,,,
5.3359375000,21,4101.5385742188,,,
5.3437500000,21,4103.3334960938,,,
5.3515625000,21,4105.3847656250,,,
5.3593750000,21,4105.6411132813,,,
5.3671875000,21,4102.4360351563,,,
5.3750000000,21,4096.6665039063,,,
5.3828125000,21,4091.1538085938,,,
5.3906250000,21,4089.1025390625,,,
5.3984375000,21,4091.4101562500,33024,5.3994140625,0.0000000000
5.4062500000,21,4096.4101562500,,,
5.4140625000,21,4101.6665039063,,,
5.4218750000,21,4105.1284179688,,,
5.4296875000,21,4106.4101562500,,,
5.4375000000,21,4105.8974609375,,,
5.4453125000,21,4104.4873046875,,,
5.4531250000,21,4103.0771484375,,,
5.4609375000,21,4103.2050781250,,,
5.4687500000,21,4104.7436523438,,,
5.4765625000,21,4106.6665039063,,,
5.4843750000,21,4107.0512695313,,,
5.4921875000,21,4105.8974609375,,,
5.5000000000,22,4104.3588867188,,,
5.5078125000,22,4103.9741210938,,,
5.5156250000,22,4104.4873046875,,,
5.5234375000,22,4104.1025390625,,,
5.5312500000,22,4101.9228515625,,,
5.5390625000,22,4098.8461914063,,,
5.5468750000,22,4097.4360351563,,,
5.5546875000,22,4098.8461914063,,,
5.5625000000,22,4102.0512695313,,,
5.5703125000,22,4104.3588867188,,,
5.5781250000,22,4103.9741210938,,,
5.5859375000,22,4101.2822265625,,,
5.5937500000,22,4098.3334960938,,,
5.6015625000,22,4096.9228515625,,,
5.6093750000,22,4097.5639648438,,,
5.6171875000,22,4100.0000000000,,,
5.6250000000,22,4102.9487304688,,,
5.6328125000,22,4105.1284179688,,,
5.6406250000,22,4105.6411132813,,,
5.6484375000,22,4104.7436523438,,,
5.6562500000,22,4103.3334960938,,,
5.6640625000,22,4102.8203125000,,,
5.6718750000,22,4103.2050781250,,,
5.6796875000,22,4103.5898437500,,,
5.6875000000,22,4103.4614257813,,,
5.6953125000,22,4103.4614257813,33024,5.6992187500,0.0000000000
5.7031250000,22,4104.6152343750,,,
5.7109375000,22,4106.2822265625,,,
5.7187500000,22,4106.6665039063,,,
5.7265625000,22,4104.7436523438,,,
5.7343750000,22,4101.9228515625,,,
5.7421875000,22,4100.3847656250,,,
5.7500000000,23,4101.0258789063,,,
5.7578125000,23,4102.3076171875,,,
5.7656250000,23,4102.4360351563,,,
5.7734375000,23,4100.7690429688,,,
5.7812500000,23,4098.8461914063,,,
5.7890625000,23,4097.8203125000,,,
5.7968750000,23,4098.4614257813,,,
5.8046875000,23,4099.7436523438,,,
5.8125000000,23,4100.6411132813,,,
5.8203125000,23,4101.5385742188,,,
5.8281250000,23,4103.2050781250,,,
5.8359375000,23,4105.7690429688,,,
5.8437500000,23,4107.4360351563,,,
5.8515625000,23,4107.5639648438,,,
5.8593750000,23,4106.7949218750,,,
5.8671875000,23,4106.7949218750,,,
5.8750000000,23,4107.9487304688,,,
5.8828125000,23,4108.8461914063,,,
5.8906250000,23,4108.3334960938,,,
5.8984375000,23,4106.6665039063,,,
5.9062500000,23,4105.5126953125,,,
5.9140625000,23,4106.2822265625,,,
5.9218750000,23,4109.1025390625,,,
5.9296875000,23,4112.4360351563,,,
5.9375000000,23,4113.9741210938,,,
5.9453125000,23,4112.8203125000,,,
5.9531250000,23,4109.8715820313,,,
5.9609375000,23,4107.4360351563,,,
5.9687500000,23,4107.0512695313,,,
5.9765625000,23,4108.8461914063,,,
5.9843750000,23,4111.0258789063,,,
5.9921875000,23,4111.5385742188,33024,5.9990234375,0.0000000000
6.0000000000,24,4109.3588867188,,,
6.0078125000,24,4106.4101562500,,,
6.0156250000,24,4105.2563476563,,,
6.0234375000,24,4106.6665039063,,,
6.0312500000,24,4108.4614257813,,,
6.0390625000,24,4108.3334960938,,,
6.0468750000,24,4106.2822265625,,,
6.0546875000,24,4104.7436523438,,,
6.0625000000,24,4105.7690429688,,,
6.0703125000,24,4108.5898437500,,,
6.0781250000,24,4110.3847656250,,,
6.0859375000,24,4109.4873046875,,,
6.0937500000,24,4106.7949218750,,,
6.1015625000,24,4104.6152343750,,,
6.1093750000,24,4105.3847656250,,,
6.1171875000,24,4108.5898437500,,,
6.1250000000,24,4112.3076171875,,,
6.1328125000,24,4113.8461914063,,,
6.1406250000,24,4112.1796875000,,,
6.1484375000,24,4108.2050781250,,,
6.1562500000,24,4103.3334960938,,,
6.1640625000,24,4099.3588867188,,,
6.1718750000,24,4097.5639648438,,,
6.1796875000,24,4098.0771484375,,,
6.1875000000,24,4099.7436523438,,,
6.1953125000,24,4100.8974609375,,,
6.2031250000,24,4101.0258789063,,,
6.2109375000,24,4100.3847656250,,,
6.2187500000,24,4100.1284179688,,,
6.2265625000,24,4099.8715820313,,,
6.2343750000,24,4099.2309570313,,,
6.2421875000,24,4098.7177734375,,,
6.2500000000,25,4099.1025390625,,,
6.2578125000,25,4100.6411132813,,,
6.2656250000,25,4102.4360351563,,,
6.2734375000,25,4102.9487304688,,,
6.2812500000,25,4102.1796875000,,,
6.2890625000,25,4101.2822265625,,,
6.2968750000,25,4101.6665039063,33024,6.2998046875,0.0000000000
6.3046875000,25,4103.3334960938,,,
6.3125000000,25,4104.3588867188,,,
6.3203125000,25,4103.9741210938,,,
6.3281250000,25,4103.2050781250,,,
6.3359375000,25,4103.4614257813,,,
6.3437500000,25,4105.0000000000,,,
6.3515625000,25,4106.6665039063,,,
6.3593750000,25,4107.0512695313,,,
6.3671875000,25,4106.6665039063,,,
6.3750000000,25,4105.8974609375,,,
6.3828125000,25,4105.5126953125,,,
6.3906250000,25,4105.3847656250,,,
6.3984375000,25,4105.1284179688,,,
6.4062500000,25,4104.7436523438,,,
6.4140625000,25,4104.6152343750,,,
6.4218750000,25,4104.8715820313,,,
6.4296875000,25,4105.3847656250,,,
6.4375000000,25,4105.8974609375,,,
6.4453125000,25,4106.4101562500,,,
6.4531250000,25,4107.5639648438,,,
6.4609375000,25,4109.1025390625,,,
6.4687500000,25,4109.6152343750,,,
6.4765625000,25,4108.0771484375,,,
6.4843750000,25,4105.0000000000,,,
6.4921875000,25,4102.6923828125,,,
6.5000000000,26,4102.5639648438,,,
6.5078125000,26,4104.4873046875,,,
6.5156250000,26,4106.5385742188,,,
6.5234375000,26,4107.1796875000,,,
6.5312500000,26,4106.4101562500,,,
6.5390625000,26,4104.7436523438,,,
6.5468750000,26,4103.3334960938,,,
6.5546875000,26,4102.4360351563,,,
6.5625000000,26,4102.0512695313,,,
6.5703125000,26,4102.1796875000,,,
6.5781250000,26,4102.8203125000,,,
6.5859375000,26,4103.7177734375,,,
6.5937500000,26,4103.7177734375,33024,6.5996093750,0.0000000000
6.6015625000,26,4101.9228515625,,,
6.6093750000,26,4099.1025390625,,,
6.6171875000,26,4097.0512695313,,,
6.6250000000,26,4096.6665039063,,,
6.6328125000,26,4097.1796875000,,,
6.6406250000,26,4098.0771484375,,,
6.6484375000,26,4099.3588867188,,,
6.6562500000,26,4100.8974609375,,,
6.6640625000,26,4101.6665039063,,,
6.6718750000,26,4100.6411132813,,,
6.6796875000,26,4098.3334960938,,,
6.6875000000,26,4096.6665039063,,,
6.6953125000,26,4096.9228515625,,,
6.7031250000,26,4098.8461914063,,,
6.7109375000,26,4100.3847656250,,,
6.7187500000,26,4100.5126953125,,,
6.7265625000,26,4099.8715820313,,,
6.7343750000,26,4100.1284179688,,,
6.7421875000,26,4101.6665039063,,,
6.7500000000,27,4103.3334960938,,,
6.7578125000,27,4103.4614257813,,,
6.7656250000,27,4102.8203125000,,,
6.7734375000,27,4102.5639648438,,,
6.7812500000,27,4102.8203125000,,,
6.7890625000,27,4103.0771484375,,,
6.7968750000,27,4102.8203125000,,,
6.8046875000,27,4102.9487304688,,,
6.8125000000,27,4103.8461914063,,,
6.8203125000,27,4104.4873046875,,,
6.8281250000,27,4104.3588867188,,,
6.8359375000,27,4103.5898437500,,,
6.8437500000,27,4103.2050781250,,,
6.8515625000,27,4103.7177734375,,,
6.8593750000,27,4104.6152343750,,,
6.8671875000,27,4105.0000000000,,,
6.8750000000,27,4104.3588867188,,,
6.8828125000,27,4103.4614257813,,,
6.8906250000,27,4103.8461914063,,,
6.8984375000,27,4106.2822265625,33024,6.8994140625,0.0000000000
6.9062500000,27,4109.2309570313,,,
6.9140625000,27,4111.0258789063,,,
6.9218750000,27,4110.3847656250,,,
6.9296875000,27,4108.2050781250,,,
6.9375000000,27,4106.1538085938,,,
6.9453125000,27,4105.8974609375,,,
6.9531250000,27,4107.4360351563,,,
6.9609375000,27,4109.6152343750,,,
6.9687500000,27,4110.7690429688,,,
6.9765625000,27,4110.5126953125,,,
6.9843750000,27,4109.4873046875,,,
6.9921875000,27,4109.3588867188,,,
7.0000000000,28,4112.0512695313,,,
7.0078125000,28,4117.0512695313,,,
7.0156250000,28,4122.1796875000,,,
7.0234375000,28,4124.3588867188,,,
7.0312500000,28,4121.9228515625,,,
7.0390625000,28,4116.5385742188,,,
7.0468750000,28,4110.8974609375,,,
7.0546875000,28,4106.9228515625,,,
7.0625000000,28,4104.8715820313,,,
7.0703125000,28,4103.8461914063,,,
7.0781250000,28,4103.3334960938,,,
7.0859375000,28,4103.2050781250,,,
7.0937500000,28,4103.3334960938,,,
7.1015625000,28,4103.5898437500,,,
7.1093750000,28,4103.8461914063,,,
7.1171875000,28,4104.1025390625,,,
7.1250000000,28,4104.8715820313,,,
7.1328125000,28,4105.5126953125,,,
7.1406250000,28,4104.7436523438,,,
7.1484375000,28,4102.4360351563,,,
7.1562500000,28,4100.3847656250,,,
7.1640625000,28,4100.2563476563,,,
7.1718750000,28,4102.1796875000,,,
7.1796875000,28,4104.2309570313,,,
7.1875000000,28,4104.6152343750,,,
7.1953125000,28,4102.9487304688,33024,7.1992187500,0.0000000000
7.2031250000,28,4100.7690429688,,,
7.2109375000,28,4100.1284179688,,,
7.2187500000,28,4101.4101562500,,,
7.2265625000,28,4103.0771484375,,,
7.2343750000,28,4103.9741210938,,,
7.2421875000,28,4104.3588867188,,,
7.2500000000,29,4105.3847656250,,,
7.2578125000,29,4106.5385742188,,,
7.2656250000,29,4106.1538085938,,,
7.2734375000,29,4103.3334960938,,,
7.2812500000,29,4100.1284179688,,,
7.2890625000,29,4099.3588867188,,,
7.2968750000,29,4101.9228515625,,,
7.3046875000,29,4105.1284179688,,,
7.3125000000,29,4106.0258789063,,,
7.3203125000,29,4103.9741210938,,,
7.3281250000,29,4101.0258789063,,,
7.3359375000,29,4099.6152343750,,,
7.3437500000,29,4100.8974609375,,,
7.3515625000,29,4103.8461914063,,,
7.3593750000,29,4106.6665039063,,,
7.3671875000,29,4107.6923828125,,,
7.3750000000,29,4106.4101562500,,,
7.3828125000,29,4103.7177734375,,,
7.3906250000,29,4101.5385742188,,,
7.3984375000,29,4101.5385742188,,,
7.4062500000,29,4103.9741210938,,,
7.4140625000,29,4106.7949218750,,,
7.4218750000,29,4108.4614257813,,,
7.4296875000,29,4108.3334960938,,,
7.4375000000,29,4107.4360351563,,,
7.4453125000,29,4106.4101562500,,,
7.4531250000,29,4104.6152343750,,,
7.4609375000,29,4101.6665039063,,,
7.4687500000,29,4100.0000000000,,,
7.4765625000,29,4102.0512695313,,,
7.4843750000,29,4107.5639648438,,,
7.4921875000,29,4111.4101562500,33024,7.4990234375,0.0000000000
7.5000000000,30,4107.4360351563,,,
7.5078125000,30,4093.5898437500,,,
7.5156250000,30,4075.7692871094,,,
7.5234375000,30,4064.2307128906,,,
7.5312500000,30,4065.8974609375,,,
7.5390625000,30,4079.1025390625,,,
7.5468750000,30,4095.6411132813,,,
7.5546875000,30,4106.7949218750,,,
7.5625000000,30,4108.5898437500,,,
7.5703125000,30,4104.1025390625,,,
7.5781250000,30,4098.8461914063,,,
7.5859375000,30,4097.6923828125,,,
7.5937500000,30,4100.8974609375,,,
7.6015625000,30,4105.5126953125,,,
7.6093750000,30,4108.2050781250,,,
7.6171875000,30,4107.4360351563,,,
7.6250000000,30,4104.7436523438,,,
7.6328125000,30,4103.0771484375,,,
7.6406250000,30,4104.3588867188,,,
7.6484375000,30,4107.1796875000,,,
7.6562500000,30,4108.3334960938,,,
7.6640625000,30,4106.4101562500,,,
7.6718750000,30,4102.4360351563,,,
7.6796875000,30,4099.2309570313,,,
7.6875000000,30,4098.7177734375,,,
7.6953125000,30,4100.3847656250,,,
7.7031250000,30,4101.9228515625,,,
7.7109375000,30,4101.5385742188,,,
7.7187500000,30,4099.3588867188,,,
7.7265625000,30,4097.5639648438,,,
7.7343750000,30,4097.8203125000,,,
7.7421875000,30,4099.8715820313,,,
7.7500000000,31,4101.9228515625,,,
7.7578125000,31,4102.3076171875,,,
7.7656250000,31,4101.1538085938,,,
7.7734375000,31,4099.4873046875,,,
7.7812500000,31,4098.2050781250,,,
7.7890625000,31,4097.9487304688,,,
7.7968750000,31,4097.9487304688,33024,7.7998046875,0.0000000000
7.8046875000,31,4097.6923828125,,,
7.8125000000,31,4097.3076171875,,,
7.8203125000,31,4097.6923828125,,,
7.8281250000,31,4099.8715820313,,,
7.8359375000,31,4102.9487304688,,,
7.8437500000,31,4105.6411132813,,,
7.8515625000,31,4107.3076171875,,,
7.8593750000,31,4108.8461914063,,,
7.8671875000,31,4111.9228515625,,,
7.8750000000,31,4117.0512695313,,,
7.8828125000,31,4122.6923828125,,,
7.8906250000,31,4126.9228515625,,,
7.8984375000,31,4129.6152343750,,,
7.9062500000,31,4132.9487304688,,,
7.9140625000,31,4138.8461914063,,,
7.9218750000,31,4145.3847656250,,,
7.9296875000,31,4148.2050781250,,,
7.9375000000,31,4144.3588867188,,,
7.9453125000,31,4134.2309570313,,,
7.9531250000,31,4121.5385742188,,,
7.9609375000,31,4110.8974609375,,,
7.9687500000,31,4104.3588867188,,,
7.9765625000,31,4101.9228515625,,,
7.9843750000,31,4101.6665039063,,,
7.9921875000,31,4101.9228515625,,,
8.0000000000,32,4102.0512695313,,,
8.0078125000,32,4101.9228515625,,,
8.0156250000,32,4101.2822265625,,,
8.0234375000,32,4100.5126953125,,,
8.0312500000,32,4100.5126953125,,,
8.0390625000,32,4102.0512695313,,,
8.0468750000,32,4104.1025390625,,,
8.0546875000,32,4104.4873046875,,,
8.0625000000,32,4101.6665039063,,,
8.0703125000,32,4096.7949218750,,,
8.0781250000,32,4093.7180175781,,,
8.0859375000,32,4094.8718261719,,,
8.0937500000,32,4098.7177734375,33024,8.0996093750,0.0000000000
8.1015625000,32,4101.4101562500,,,
8.1093750000,32,4101.1538085938,,,
8.1171875000,32,4099.3588867188,,,
8.1250000000,32,4098.7177734375,,,
8.1328125000,32,4099.3588867188,,,
8.1406250000,32,4100.1284179688,,,
8.1484375000,32,4100.0000000000,,,
8.1562500000,32,4099.7436523438,,,
8.1640625000,32,4099.7436523438,,,
8.1718750000,32,4099.2309570313,,,
8.1796875000,32,4097.4360351563,,,
8.1875000000,32,4095.2563476563,,,
8.1953125000,32,4094.8718261719,,,
8.2031250000,32,4097.1796875000,,,
8.2109375000,32,4101.0258789063,,,
8.2187500000,32,4104.2309570313,,,
8.2265625000,32,4106.0258789063,,,
8.2343750000,32,4107.0512695313,,,
8.2421875000,32,4107.4360351563,,,
8.2500000000,33,4105.7690429688,,,
8.2578125000,33,4101.5385742188,,,
8.2656250000,33,4096.1538085938,,,
8.2734375000,33,4092.9487304688,,,
8.2812500000,33,4093.0769042969,,,
8.2890625000,33,4095.2563476563,,,
8.2968750000,33,4096.9228515625,,,
8.3046875000,33,4097.1796875000,,,
8.3125000000,33,4097.1796875000,,,
8.3203125000,33,4097.5639648438,,,
8.3281250000,33,4098.3334960938,,,
8.3359375000,33,4098.4614257813,,,
8.3437500000,33,4098.2050781250,,,
8.3515625000,33,4098.2050781250,,,
8.3593750000,33,4098.8461914063,,,
8.3671875000,33,4099.8715820313,,,
8.3750000000,33,4101.0258789063,,,
8.3828125000,33,4102.0512695313,,,
8.3906250000,33,4102.9487304688,,,
8.3984375000,33,4103.3334960938,33024,8.3994140625,0.0000000000
8.4062500000,33,4102.9487304688,,,
8.4140625000,33,4101.6665039063,,,
8.4218750000,33,4101.0258789063,,,
8.4296875000,33,4101.6665039063,,,
8.4375000000,33,4102.5639648438,,,
8.4453125000,33,4102.0512695313,,,
8.4531250000,33,4100.5126953125,,,
8.4609375000,33,4099.6152343750,,,
8.4687500000,33,4101.2822265625,,,
8.4765625000,33,4104.8715820313,,,
8.4843750000,33,4107.6923828125,,,
8.4921875000,33,4107.9487304688,,,
8.5000000000,34,4106.2822265625,,,
8.5078125000,34,4104.4873046875,,,
8.5156250000,34,4104.2309570313,,,
8.5234375000,34,4105.1284179688,,,
8.5312500000,34,4105.2563476563,,,
8.5390625000,34,4104.1025390625,,,
8.5468750000,34,4102.0512695313,,,
8.5546875000,34,4100.8974609375,,,
8.5625000000,34,4101.5385742188,,,
8.5703125000,34,4103.5898437500,,,
8.5781250000,34,4106.1538085938,,,
8.5859375000,34,4107.4360351563,,,
8.5937500000,34,4106.4101562500,,,
8.6015625000,34,4103.8461914063,,,
8.6093750000,34,4101.6665039063,,,
8.6171875000,34,4101.5385742188,,,
8.6250000000,34,4103.3334960938,,,
8.6328125000,34,4105.2563476563,,,
8.6406250000,34,4105.2563476563,,,
8.6484375000,34,4103.4614257813,,,
8.6562500000,34,4101.7949218750,,,
8.6640625000,34,4102.4360351563,,,
8.6718750000,34,4105.3847656250,,,
8.6796875000,34,4108.0771484375,,,
8.6875000000,34,4108.4614257813,,,
8.6953125000,34,4106.5385742188,33024,8.6992187500,0.0000000000
8.7031250000,34,4104.1025390625,,,
8.7109375000,34,4103.3334960938,,,
8.7187500000,34,4105.0000000000,,,
8.7265625000,34,4107.4360351563,,,
8.7343750000,34,4108.4614257813,,,
8.7421875000,34,4107.8203125000,,,
8.7500000000,35,4106.4101562500,,,
8.7578125000,35,4105.5126953125,,,
8.7656250000,35,4104.7436523438,,,
8.7734375000,35,4102.9487304688,,,
8.7812500000,35,4100.3847656250,,,
8.7890625000,35,4098.9741210938,,,
8.7968750000,35,4100.2563476563,,,
8.8046875000,35,4103.5898437500,,,
8.8125000000,35,4106.1538085938,,,
8.8203125000,35,4106.2822265625,,,
8.8281250000,35,4104.7436523438,,,
8.8359375000,35,4104.1025390625,,,
8.8437500000,35,4105.3847656250,,,
8.8515625000,35,4107.6923828125,,,
8.8593750000,35,4109.2309570313,,,
8.8671875000,35,4109.7436523438,,,
8.8750000000,35,4109.6152343750,,,
8.8828125000,35,4109.2309570313,,,
8.8906250000,35,4109.1025390625,,,
8.8984375000,35,4109.1025390625,,,
8.9062500000,35,4108.8461914063,,,
8.9140625000,35,4108.0771484375,,,
8.9218750000,35,4106.4101562500,,,
8.9296875000,35,4104.7436523438,,,
8.9375000000,35,4104.6152343750,,,
8.9453125000,35,4106.2822265625,,,
8.9531250000,35,4108.7177734375,,,
8.9609375000,35,4110.5126953125,,,
8.9687500000,35,4111.2822265625,,,
8.9765625000,35,4112.0512695313,,,
8.9843750000,35,4114.3588867188,,,
8.9921875000,35,4118.2050781250,33024,8.9990234375,0.0000000000
9.0000000000,36,4121.9228515625,,,
9.0078125000,36,4123.7177734375,,,
9.0156250000,36,4122.5639648438,,,
9.0234375000,36,4118.9741210938,,,
9.0312500000,36,4114.2309570313,,,
9.0390625000,36,4109.7436523438,,,
9.0468750000,36,4107.1796875000,,,
9.0546875000,36,4106.5385742188,,,
9.0625000000,36,4107.1796875000,,,
9.0703125000,36,4107.5639648438,,,
9.0781250000,36,4107.0512695313,,,
9.0859375000,36,4104.8715820313,,,
9.0937500000,36,4101.6665039063,,,
9.1015625000,36,4099.1025390625,,,
9.1093750000,36,4098.2050781250,,,
9.1171875000,36,4098.9741210938,,,
9.1250000000,36,4099.7436523438,,,
9.1328125000,36,4099.8715820313,,,
9.1406250000,36,4099.8715820313,,,
9.1484375000,36,4100.8974609375,,,
9.1562500000,36,4102.4360351563,,,
9.1640625000,36,4102.6923828125,,,
9.1718750000,36,4100.8974609375,,,
9.1796875000,36,4098.2050781250,,,
9.1875000000,36,4097.1796875000,,,
9.1953125000,36,4098.4614257813,,,
9.2031250000,36,4101.1538085938,,,
9.2109375000,36,4102.9487304688,,,
9.2187500000,36,4102.4360351563,,,
9.2265625000,36,4098.5898437500,,,
9.2343750000,36,4091.0256347656,,,
9.2421875000,36,4081.0256347656,,,
9.2500000000,37,4072.8205566406,,,
9.2578125000,37,4072.5642089844,,,
9.2656250000,37,4082.9487304688,,,
9.2734375000,37,4098.9741210938,,,
9.2812500000,37,4110.8974609375,,,
9.2890625000,37,4111.4101562500,,,
9.2968750000,37,4103.2050781250,33024,9.2998046875,0.0000000000
9.3046875000,37,4095.3845214844,,,
9.3125000000,37,4095.2563476563,,,
9.3203125000,37,4102.1796875000,,,
9.3281250000,37,4109.3588867188,,,
9.3359375000,37,4110.8974609375,,,
9.3437500000,37,4106.4101562500,,,
9.3515625000,37,4100.6411132813,,,
9.3593750000,37,4098.5898437500,,,
9.3671875000,37,4101.6665039063,,,
9.3750000000,37,4107.1796875000,,,
9.3828125000,37,4111.0258789063,,,
9.3906250000,37,4110.8974609375,,,
9.3984375000,37,4107.8203125000,,,
9.4062500000,37,4105.0000000000,,,
9.4140625000,37,4105.0000000000,,,
9.4218750000,37,4107.4360351563,,,
9.4296875000,37,4109.3588867188,,,
9.4375000000,37,4108.5898437500,,,
9.4453125000,37,4106.0258789063,,,
9.4531250000,37,4104.7436523438,,,
9.4609375000,37,4106.4101562500,,,
9.4687500000,37,4109.4873046875,,,
9.4765625000,37,4110.3847656250,,,
9.4843750000,37,4107.9487304688,,,
9.4921875000,37,4103.9741210938,,,
9.5000000000,38,4102.1796875000,,,
9.5078125000,38,4104.2309570313,,,
9.5156250000,38,4107.9487304688,,,
9.5234375000,38,4110.2563476563,,,
9.5312500000,38,4109.1025390625,,,
9.5390625000,38,4105.6411132813,,,
9.5468750000,38,4102.0512695313,,,
9.5546875000,38,4100.5126953125,,,
9.5625000000,38,4101.4101562500,,,
9.5703125000,38,4103.7177734375,,,
9.5781250000,38,4106.0258789063,,,
9.5859375000,38,4107.1796875000,,,
9.5937500000,38,4106.6665039063,33024,9.5996093750,0.0000000000
9.6015625000,38,4104.8715820313,,,
9.6093750000,38,4102.5639648438,,,
9.6171875000,38,4100.8974609375,,,
9.6250000000,38,4100.2563476563,,,
9.6328125000,38,4100.2563476563,,,
9.6406250000,38,4100.3847656250,,,
9.6484375000,38,4100.3847656250,,,
9.6562500000,38,4101.0258789063,,,
9.6640625000,38,4102.1796875000,,,
9.6718750000,38,4102.9487304688,,,
9.6796875000,38,4102.4360351563,,,
9.6875000000,38,4101.1538085938,,,
9.6953125000,38,4100.0000000000,,,
9.7031250000,38,4099.4873046875,,,
9.7109375000,38,4099.4873046875,,,
9.7187500000,38,4100.2563476563,,,
9.7265625000,38,4101.6665039063,,,
9.7343750000,38,4103.4614257813,,,
9.7421875000,38,4105.1284179688,,,
9.7500000000,39,4106.0258789063,,,
9.7578125000,39,4105.7690429688,,,
9.7656250000,39,4104.6152343750,,,
9.7734375000,39,4104.3588867188,,,
9.7812500000,39,4105.8974609375,,,
9.7890625000,39,4108.2050781250,,,
9.7968750000,39,4109.4873046875,,,
9.8046875000,39,4108.7177734375,,,
9.8125000000,39,4106.9228515625,,,
9.8203125000,39,4106.1538085938,,,
9.8281250000,39,4107.6923828125,,,
9.8359375000,39,4110.5126953125,,,
9.8437500000,39,4112.8203125000,,,
9.8515625000,39,4113.0771484375,,,
9.8593750000,39,4110.6411132813,,,
9.8671875000,39,4106.5385742188,,,
9.8750000000,39,4102.5639648438,,,
9.8828125000,39,4100.5126953125,,,
9.8906250000,39,4101.0258789063,,,
9.8984375000,39,4103.0771484375,33024,9.8994140625,0.0000000000
9.9062500000,39,4104.6152343750,,,
9.9140625000,39,4104.2309570313,,,
9.9218750000,39,4102.4360351563,,,
9.9296875000,39,4101.4101562500,,,
9.9375000000,39,4102.5639648438,,,
9.9453125000,39,4105.2563476563,,,
9.9531250000,39,4106.9228515625,,,
9.9609375000,39,4105.6411132813,,,
9.9687500000,39,4102.3076171875,,,
9.9765625000,39,4099.7436523438,,,
9.9843750000,39,4099.2309570313,,,
9.9921875000,39,4100.7690429688,,,
10.0000000000,40,4102.4360351563,,,
10.0078125000,40,4103.0771484375,,,
10.0156250000,40,4102.0512695313,,,
10.0234375000,40,4100.0000000000,,,
10.0312500000,40,4098.3334960938,,,
10.0390625000,40,4098.7177734375,,,
10.0468750000,40,4101.2822265625,,,
10.0546875000,40,4104.7436523438,,,
10.0625000000,40,4107.0512695313,,,
10.0703125000,40,4106.7949218750,,,
10.0781250000,40,4104.6152343750,,,
10.0859375000,40,4101.7949218750,,,
10.0937500000,40,4100.0000000000,,,
10.1015625000,40,4099.4873046875,,,
10.1093750000,40,4100.2563476563,,,
10.1171875000,40,4101.5385742188,,,
10.1250000000,40,4103.2050781250,,,
10.1328125000,40,4104.7436523438,,,
10.1406250000,40,4105.2563476563,,,
10.1484375000,40,4104.6152343750,,,
10.1562500000,40,4103.9741210938,,,
10.1640625000,40,4104.3588867188,,,
10.1718750000,40,4105.7690429688,,,
10.1796875000,40,4106.9228515625,,,
10.1875000000,40,4106.6665039063,,,
10.1953125000,40,4105.1284179688,33024,10.1992187500,0.0000000000
10.2031250000,40,4103.5898437500,,,
10.2109375000,40,4104.1025390625,,,
10.2187500000,40,4106.1538085938,,,
10.2265625000,40,4108.0771484375,,,
10.2343750000,40,4108.2050781250,,,
10.2421875000,40,4106.6665039063,,,
10.2500000000,41,4104.6152343750,,,
10.2578125000,41,4103.2050781250,,,
10.2656250000,41,4102.6923828125,,,
10.2734375000,41,4102.5639648438,,,
10.2812500000,41,4101.7949218750,,,
10.2890625000,41,4100.7690429688,,,
10.2968750000,41,4100.5126953125,,,
10.3046875000,41,4101.4101562500,,,
10.3125000000,41,4102.3076171875,,,
10.3203125000,41,4101.6665039063,,,
10.3281250000,41,4099.8715820313,,,
10.3359375000,41,4098.0771484375,,,
10.3437500000,41,4097.6923828125,,,
10.3515625000,41,4099.3588867188,,,
10.3593750000,41,4101.9228515625,,,
10.3671875000,41,4104.1025390625,,,
10.3750000000,41,4105.2563476563,,,
10.3828125000,41,4105.7690429688,,,
10.3906250000,41,4105.8974609375,,,
10.3984375000,41,4105.6411132813,,,
10.4062500000,41,4104.6152343750,,,
10.4140625000,41,4103.2050781250,,,
10.4218750000,41,4102.1796875000,,,
10.4296875000,41,4102.1796875000,,,
10.4375000000,41,4102.6923828125,,,
10.4453125000,41,4103.7177734375,,,
10.4531250000,41,4104.4873046875,,,
10.4609375000,41,4104.6152343750,,,
10.4687500000,41,4103.8461914063,,,
10.4765625000,41,4103.0771484375,,,
10.4843750000,41,4103.4614257813,,,
10.4921875000,41,4104.4873046875,33024,10.4990234375,0.0000000000
10.5000000000,42,4105.2563476563,,,
10.5078125000,42,4104.6152343750,,,
10.5156250000,42,4102.9487304688,,,
10.5234375000,42,4101.4101562500,,,
10.5312500000,42,4101.5385742188,,,
10.5390625000,42,4103.2050781250,,,
10.5468750000,42,4105.0000000000,,,
10.5546875000,42,4105.6411132813,,,
10.5625000000,42,4104.8715820313,,,
10.5703125000,42,4103.7177734375,,,
10.5781250000,42,4103.3334960938,,,
10.5859375000,42,4104.1025390625,,,
10.5937500000,42,4104.8715820313,,,
10.6015625000,42,4104.8715820313,,,
10.6093750000,42,4103.9741210938,,,
10.6171875000,42,4103.4614257813,,,
10.6250000000,42,4104.1025390625,,,
10.6328125000,42,4105.2563476563,,,
10.6406250000,42,4105.6411132813,,,
10.6484375000,42,4103.9741210938,,,
10.6562500000,42,4100.8974609375,,,
10.6640625000,42,4098.2050781250,,,
10.6718750000,42,4097.9487304688,,,
10.6796875000,42,4100.1284179688,,,
10.6875000000,42,4103.2050781250,,,
10.6953125000,42,4105.3847656250,,,
10.7031250000,42,4106.0258789063,,,
10.7109375000,42,4105.3847656250,,,
10.7187500000,42,4104.4873046875,,,
10.7265625000,42,4103.5898437500,,,
10.7343750000,42,4102.9487304688,,,
10.7421875000,42,4103.0771484375,,,
10.7500000000,43,4106.0258789063,,,
10.7578125000,43,4114.3588867188,,,
10.7656250000,43,4128.4614257813,,,
10.7734375000,43,4143.7177734375,,,
10.7812500000,43,4152.5639648438,,,
10.7890625000,43,4149.3588867188,,,
10.7968750000,43,4135.2563476563,33024,10.7998046875,0.0000000000
10.8046875000,43,4117.1796875000,,,
10.8125000000,43,4104.1025390625,,,
10.8203125000,43,4100.7690429688,,,
10.8281250000,43,4104.8715820313,,,
10.8359375000,43,4109.1025390625,,,
10.8437500000,43,4107.6923828125,,,
10.8515625000,43,4101.9228515625,,,
10.8593750000,43,4098.3334960938,,,
10.8671875000,43,4101.2822265625,,,
10.8750000000,43,4107.4360351563,,,
10.8828125000,43,4107.6923828125,,,
10.8906250000,43,4096.2822265625,,,
10.8984375000,43,4075.7692871094,,,
10.9062500000,43,4056.1538085938,,,
10.9140625000,43,4048.5898437500,,,
10.9218750000,43,4057.3076171875,,,
10.9296875000,43,4077.5642089844,,,
10.9375000000,43,4098.4614257813,,,
10.9453125000,43,4109.4873046875,,,
10.9531250000,43,4107.3076171875,,,
10.9609375000,43,4097.8203125000,,,
10.9687500000,43,4090.7692871094,,,
10.9765625000,43,4092.1794433594,,,
10.9843750000,43,4099.6152343750,,,
10.9921875000,43,4105.1284179688,,,
11.0000000000,44,4104.2309570313,,,
11.0078125000,44,4099.2309570313,,,
11.0156250000,44,4095.8974609375,,,
11.0234375000,44,4096.7949218750,,,
11.0312500000,44,4099.6152343750,,,
11.0390625000,44,4101.7949218750,,,
11.0468750000,44,4102.9487304688,,,
11.0546875000,44,4104.3588867188,,,
11.0625000000,44,4106.5385742188,,,
11.0703125000,44,4109.4873046875,,,
11.0781250000,44,4112.6923828125,,,
11.0859375000,44,4115.8974609375,,,
11.0937500000,44,4118.7177734375,33024,11.0996093750,0.0000000000
11.1015625000,44,4120.0000000000,,,
11.1093750000,44,4118.4614257813,,,
11.1171875000,44,4113.5898437500,,,
11.1250000000,44,4106.6665039063,,,
11.1328125000,44,4100.1284179688,,,
11.1406250000,44,4095.6411132813,,,
11.1484375000,44,4094.3588867188,,,
11.1562500000,44,4095.8974609375,,,
11.1640625000,44,4099.2309570313,,,
11.1718750000,44,4102.1796875000,,,
11.1796875000,44,4103.3334960938,,,
11.1875000000,44,4103.0771484375,,,
11.1953125000,44,4103.4614257813,,,
11.2031250000,44,4106.1538085938,,,
11.2109375000,44,4110.2563476563,,,
11.2187500000,44,4112.9487304688,,,
11.2265625000,44,4112.5639648438,,,
11.2343750000,44,4109.4873046875,,,
11.2421875000,44,4106.2822265625,,,
11.2500000000,45,4104.6152343750,,,
11.2578125000,45,4103.7177734375,,,
11.2656250000,45,4102.1796875000,,,
11.2734375000,45,4100.0000000000,,,
11.2812500000,45,4099.6152343750,,,
11.2890625000,45,4102.5639648438,,,
11.2968750000,45,4106.5385742188,,,
11.3046875000,45,4106.6665039063,,,
11.3125000000,45,4102.0512695313,,,
11.3203125000,45,4098.3334960938,,,
11.3281250000,45,4103.2050781250,,,
11.3359375000,45,4119.8715820313,,,
11.3437500000,45,4142.0512695313,,,
11.3515625000,45,4157.4360351563,,,
11.3593750000,45,4156.0258789063,,,
11.3671875000,45,4137.8203125000,,,
11.3750000000,45,4113.2050781250,,,
11.3828125000,45,4095.7692871094,,,
11.3906250000,45,4092.8205566406,,,
11.3984375000,45,4100.3847656250,33024,11.3994140625,0.0000000000
11.4062500000,45,4108.9741210938,,,
11.4140625000,45,4111.5385742188,,,
11.4218750000,45,4108.3334960938,,,
11.4296875000,45,4103.7177734375,,,
11.4375000000,45,4101.0258789063,,,
11.4453125000,45,4100.2563476563,,,
11.4531250000,45,4099.7436523438,,,
11.4609375000,45,4099.2309570313,,,
11.4687500000,45,4100.2563476563,,,
11.4765625000,45,4103.0771484375,,,
11.4843750000,45,4106.0258789063,,,
11.4921875000,45,4107.1796875000,,,
11.5000000000,46,4105.6411132813,,,
11.5078125000,46,4103.0771484375,,,
11.5156250000,46,4100.8974609375,,,
11.5234375000,46,4100.0000000000,,,
11.5312500000,46,4101.0258789063,,,
11.5390625000,46,4103.4614257813,,,
11.5468750000,46,4105.8974609375,,,
11.5546875000,46,4106.7949218750,,,
11.5625000000,46,4105.5126953125,,,
11.5703125000,46,4103.3334960938,,,
11.5781250000,46,4101.6665039063,,,
11.5859375000,46,4101.0258789063,,,
11.5937500000,46,4100.7690429688,,,
11.6015625000,46,4100.5126953125,,,
11.6093750000,46,4100.1284179688,,,
11.6171875000,46,4100.2563476563,,,
11.6250000000,46,4100.6411132813,,,
11.6328125000,46,4101.2822265625,,,
11.6406250000,46,4101.9228515625,,,
11.6484375000,46,4102.9487304688,,,
11.6562500000,46,4103.9741210938,,,
11.6640625000,46,4104.4873046875,,,
11.6718750000,46,4104.2309570313,,,
11.6796875000,46,4103.5898437500,,,
11.6875000000,46,4102.8203125000,,,
11.6953125000,46,4101.7949218750,33024,11.6992187500,0.0000000000
11.7031250000,46,4100.6411132813,,,
11.7109375000,46,4099.6152343750,,,
11.7187500000,46,4099.7436523438,,,
11.7265625000,46,4101.4101562500,,,
11.7343750000,46,4103.9741210938,,,
11.7421875000,46,4105.6411132813,,,
11.7500000000,47,4105.3847656250,,,
11.7578125000,47,4103.4614257813,,,
11.7656250000,47,4101.5385742188,,,
11.7734375000,47,4100.7690429688,,,
11.7812500000,47,4100.7690429688,,,
11.7890625000,47,4101.1538085938,,,
11.7968750000,47,4101.7949218750,,,
11.8046875000,47,4103.4614257813,,,
11.8125000000,47,4105.8974609375,,,
11.8203125000,47,4108.2050781250,,,
11.8281250000,47,4108.4614257813,,,
11.8359375000,47,4105.3847656250,,,
11.8437500000,47,4099.4873046875,,,
11.8515625000,47,4094.1025390625,,,
11.8593750000,47,4093.5898437500,,,
11.8671875000,47,4100.1284179688,,,
11.8750000000,47,4108.5898437500,,,
11.8828125000,47,4108.9741210938,,,
11.8906250000,47,4093.4614257813,,,
11.8984375000,47,4063.9743652344,,,
11.9062500000,47,4035.0000000000,,,
11.9140625000,47,4025.0000000000,,,
11.9218750000,47,4043.3332519531,,,
11.9296875000,47,4081.1538085938,,,
11.9375000000,47,4117.0512695313,,,
11.9453125000,47,4132.3076171875,,,
11.9531250000,47,4124.7436523438,,,
11.9609375000,47,4108.3334960938,,,
11.9687500000,47,4099.7436523438,,,
11.9765625000,47,4104.7436523438,,,
11.9843750000,47,4116.2822265625,,,
11.9921875000,47,4123.0771484375,33024,11.9990234375,0.0000000000
12.0000000000,48,4120.1284179688,,,
12.0078125000,48,4111.1538085938,,,
12.0156250000,48,4102.9487304688,,,
12.0234375000,48,4098.4614257813,,,
12.0312500000,48,4096.5385742188,,,
12.0390625000,48,4095.2563476563,,,
12.0468750000,48,4094.6154785156,,,
12.0546875000,48,4095.5129394531,,,
12.0625000000,48,4098.0771484375,,,
12.0703125000,48,4101.5385742188,,,
12.0781250000,48,4105.1284179688,,,
12.0859375000,48,4107.1796875000,,,
12.0937500000,48,4106.5385742188,,,
12.1015625000,48,4102.9487304688,,,
12.1093750000,48,4098.4614257813,,,
12.1171875000,48,4095.8974609375,,,
12.1250000000,48,4096.0258789063,,,
12.1328125000,48,4097.0512695313,,,
12.1406250000,48,4096.4101562500,,,
12.1484375000,48,4093.7180175781,,,
12.1562500000,48,4091.0256347656,,,
12.1640625000,48,4090.6411132813,,,
12.1718750000,48,4093.0769042969,,,
12.1796875000,48,4096.5385742188,,,
12.1875000000,48,4099.4873046875,,,
12.1953125000,48,4101.5385742188,,,
12.2031250000,48,4103.4614257813,,,
12.2109375000,48,4106.1538085938,,,
12.2187500000,48,4109.2309570313,,,
12.2265625000,48,4112.8203125000,,,
12.2343750000,48,4117.5639648438,,,
12.2421875000,48,4123.4614257813,,,
12.2500000000,49,4128.7177734375,,,
12.2578125000,49,4130.6411132813,,,
12.2656250000,49,4127.8203125000,,,
12.2734375000,49,4121.2822265625,,,
12.2812500000,49,4113.8461914063,,,
12.2890625000,49,4107.6923828125,,,
12.2968750000,49,4103.8461914063,33024,12.2998046875,0.0000000000
12.3046875000,49,4102.4360351563,,,
12.3125000000,49,4103.0771484375,,,
12.3203125000,49,4104.7436523438,,,
12.3281250000,49,4105.6411132813,,,
12.3359375000,49,4104.8715820313,,,
12.3437500000,49,4103.0771484375,,,
12.3515625000,49,4102.6923828125,,,
12.3593750000,49,4104.6152343750,,,
12.3671875000,49,4107.0512695313,,,
12.3750000000,49,4107.1796875000,,,
12.3828125000,49,4104.1025390625,,,
12.3906250000,49,4101.0258789063,,,
12.3984375000,49,4101.6665039063,,,
12.4062500000,49,4105.7690429688,,,
12.4140625000,49,4108.0771484375,,,
12.4218750000,49,4103.3334960938,,,
12.4296875000,49,4091.5385742188,,,
12.4375000000,49,4079.1025390625,,,
12.4453125000,49,4074.1025390625,,,
12.4531250000,49,4079.7436523438,,,
12.4609375000,49,4092.6923828125,,,
12.4687500000,49,4105.6411132813,,,
12.4765625000,49,4113.0771484375,,,
12.4843750000,49,4113.5898437500,,,
12.4921875000,49,4109.7436523438,,,
12.5000000000,50,4105.8974609375,,,
12.5078125000,50,4105.2563476563,,,
12.5156250000,50,4108.9741210938,,,
12.5234375000,50,4114.3588867188,,,
12.5312500000,50,4118.0771484375,,,
12.5390625000,50,4117.9487304688,,,
12.5468750000,50,4115.3847656250,,,
12.5546875000,50,4112.5639648438,,,
12.5625000000,50,4110.7690429688,,,
12.5703125000,50,4109.7436523438,,,
12.5781250000,50,4108.9741210938,,,
12.5859375000,50,4108.3334960938,,,
12.5937500000,50,4107.6923828125,33024,12.5996093750,0.0000000000
12.6015625000,50,4107.1796875000,,,
12.6093750000,50,4106.7949218750,,,
12.6171875000,50,4106.4101562500,,,
12.6250000000,50,4106.2822265625,,,
12.6328125000,50,4106.1538085938,,,
12.6406250000,50,4105.6411132813,,,
12.6484375000,50,4104.8715820313,,,
12.6562500000,50,4104.4873046875,,,
12.6640625000,50,4105.0000000000,,,
12.6718750000,50,4106.0258789063,,,
12.6796875000,50,4106.1538085938,,,
12.6875000000,50,4105.0000000000,,,
12.6953125000,50,4103.3334960938,,,
12.7031250000,50,4102.6923828125,,,
12.7109375000,50,4103.8461914063,,,
12.7187500000,50,4105.8974609375,,,
12.7265625000,50,4107.1796875000,,,
12.7343750000,50,4107.3076171875,,,
12.7421875000,50,4106.7949218750,,,
12.7500000000,51,4106.1538085938,,,
12.7578125000,51,4105.2563476563,,,
12.7656250000,51,4103.7177734375,,,
12.7734375000,51,4102.1796875000,,,
12.7812500000,51,4102.0512695313,,,
12.7890625000,51,4104.1025390625,,,
12.7968750000,51,4107.5639648438,,,
12.8046875000,51,4109.7436523438,,,
12.8125000000,51,4109.1025390625,,,
12.8203125000,51,4106.1538085938,,,
12.8281250000,51,4103.2050781250,,,
12.8359375000,51,4102.3076171875,,,
12.8437500000,51,4103.4614257813,,,
12.8515625000,51,4105.3847656250,,,
12.8593750000,51,4106.5385742188,,,
12.8671875000,51,4107.3076171875,,,
12.8750000000,51,4108.4614257813,,,
12.8828125000,51,4109.3588867188,,,
12.8906250000,51,4108.9741210938,,,
12.8984375000,51,4108.2050781250,33024,12.8994140625,0.0000000000
12.9062500000,51,4109.7436523438,,,
12.9140625000,51,4114.1025390625,,,
12.9218750000,51,4116.0258789063,,,
12.9296875000,51,4107.9487304688,,,
12.9375000000,51,4087.8205566406,,,
12.9453125000,51,4063.3332519531,,,
12.9531250000,51,4047.9487304688,,,
12.9609375000,51,4051.1538085938,,,
12.9687500000,51,4070.6411132813,,,
12.9765625000,51,4095.2563476563,,,
12.9843750000,51,4112.6923828125,,,
12.9921875000,51,4117.0512695313,,,
13.0000000000,52,4111.2822265625,,,
13.0078125000,52,4102.9487304688,,,
13.0156250000,52,4098.5898437500,,,
13.0234375000,52,4099.7436523438,,,
13.0312500000,52,4103.3334960938,,,
13.0390625000,52,4105.3847656250,,,
13.0468750000,52,4104.1025390625,,,
13.0546875000,52,4101.5385742188,,,
13.0625000000,52,4099.6152343750,,,
13.0703125000,52,4098.8461914063,,,
13.0781250000,52,4098.7177734375,,,
13.0859375000,52,4098.8461914063,,,
13.0937500000,52,4099.3588867188,,,
13.1015625000,52,4100.1284179688,,,
13.1093750000,52,4100.6411132813,,,
13.1171875000,52,4100.2563476563,,,
13.1250000000,52,4099.8715820313,,,
13.1328125000,52,4100.2563476563,,,
13.1406250000,52,4101.9228515625,,,
13.1484375000,52,4104.1025390625,,,
13.1562500000,52,4106.9228515625,,,
13.1640625000,52,4111.6665039063,,,
13.1718750000,52,4119.4873046875,,,
13.1796875000,52,4129.3588867188,,,
13.1875000000,52,4137.6923828125,,,
13.1953125000,52,4140.5126953125,33024,13.1992187500,0.0000000000
13.2031250000,52,4136.4101562500,,,
13.2109375000,52,4127.1796875000,,,
13.2187500000,52,4116.7949218750,,,
13.2265625000,52,4109.2309570313,,,
13.2343750000,52,4105.8974609375,,,
13.2421875000,52,4105.5126953125,,,
13.2500000000,53,4106.0258789063,,,
13.2578125000,53,4105.8974609375,,,
13.2656250000,53,4105.3847656250,,,
13.2734375000,53,4104.8715820313,,,
13.2812500000,53,4104.3588867188,,,
13.2890625000,53,4103.9741210938,,,
13.2968750000,53,4103.9741210938,,,
13.3046875000,53,4104.4873046875,,,
13.3125000000,53,4105.6411132813,,,
13.3203125000,53,4106.4101562500,,,
13.3281250000,53,4106.2822265625,,,
13.3359375000,53,4105.2563476563,,,
13.3437500000,53,4103.4614257813,,,
13.3515625000,53,4101.6665039063,,,
13.3593750000,53,4100.2563476563,,,
13.3671875000,53,4100.8974609375,,,
13.3750000000,53,4103.9741210938,,,
13.3828125000,53,4107.4360351563,,,
13.3906250000,53,4106.6665039063,,,
13.3984375000,53,4097.0512695313,,,
13.4062500000,53,4079.1025390625,,,
13.4140625000,53,4060.5129394531,,,
13.4218750000,53,4052.8205566406,,,
13.4296875000,53,4063.2050781250,,,
13.4375000000,53,4086.7949218750,,,
13.4453125000,53,4110.5126953125,,,
13.4531250000,53,4121.5385742188,,,
13.4609375000,53,4117.9487304688,,,
13.4687500000,53,4107.4360351563,,,
13.4765625000,53,4100.7690429688,,,
13.4843750000,53,4102.8203125000,,,
13.4921875000,53,4110.3847656250,33024,13.4990234375,0.0000000000
13.5000000000,54,4116.4101562500,,,
13.5078125000,54,4116.6665039063,,,
13.5156250000,54,4112.0512695313,,,
13.5234375000,54,4106.7949218750,,,
13.5312500000,54,4103.9741210938,,,
13.5390625000,54,4104.3588867188,,,
13.5468750000,54,4106.2822265625,,,
13.5546875000,54,4107.6923828125,,,
13.5625000000,54,4107.3076171875,,,
13.5703125000,54,4105.8974609375,,,
13.5781250000,54,4105.1284179688,,,
13.5859375000,54,4105.8974609375,,,
13.5937500000,54,4107.3076171875,,,
13.6015625000,54,4107.1796875000,,,
13.6093750000,54,4105.5126953125,,,
13.6171875000,54,4103.9741210938,,,
13.6250000000,54,4104.3588867188,,,
13.6328125000,54,4106.7949218750,,,
13.6406250000,54,4109.4873046875,,,
13.6484375000,54,4110.2563476563,,,
13.6562500000,54,4109.2309570313,,,
13.6640625000,54,4107.6923828125,,,
13.6718750000,54,4106.5385742188,,,
13.6796875000,54,4105.8974609375,,,
13.6875000000,54,4105.3847656250,,,
13.6953125000,54,4105.1284179688,,,
13.7031250000,54,4106.0258789063,,,
13.7109375000,54,4107.8203125000,,,
13.7187500000,54,4108.9741210938,,,
13.7265625000,54,4108.7177734375,,,
13.7343750000,54,4106.9228515625,,,
13.7421875000,54,4105.0000000000,,,
13.7500000000,55,4103.8461914063,,,
13.7578125000,55,4103.8461914063,,,
13.7656250000,55,4104.6152343750,,,
13.7734375000,55,4105.6411132813,,,
13.7812500000,55,4106.4101562500,,,
13.7890625000,55,4106.5385742188,,,
13.7968750000,55,4106.0258789063,33024,13.7998046875,0.0000000000
13.8046875000,55,4105.2563476563,,,
13.8125000000,55,4105.5126953125,,,
13.8203125000,55,4107.0512695313,,,
13.8281250000,55,4109.1025390625,,,
13.8359375000,55,4110.0000000000,,,
13.8437500000,55,4108.8461914063,,,
13.8515625000,55,4106.5385742188,,,
13.8593750000,55,4105.5126953125,,,
13.8671875000,55,4106.9228515625,,,
13.8750000000,55,4108.8461914063,,,
13.8828125000,55,4108.4614257813,,,
13.8906250000,55,4104.8715820313,,,
13.8984375000,55,4100.1284179688,,,
13.9062500000,55,4097.3076171875,,,
13.9140625000,55,4097.4360351563,,,
13.9218750000,55,4098.9741210938,,,
13.9296875000,55,4099.6152343750,,,
13.9375000000,55,4098.4614257813,,,
13.9453125000,55,4097.0512695313,,,
13.9531250000,55,4097.5639648438,,,
13.9609375000,55,4099.7436523438,,,
13.9687500000,55,4101.5385742188,,,
13.9765625000,55,4101.4101562500,,,
13.9843750000,55,4099.7436523438,,,
13.9921875000,55,4097.4360351563,,,
14.0000000000,56,4096.1538085938,,,
14.0078125000,56,4096.6665039063,,,
14.0156250000,56,4099.1025390625,,,
14.0234375000,56,4101.7949218750,,,
14.0312500000,56,4103.3334960938,,,
14.0390625000,56,4102.9487304688,,,
14.0468750000,56,4102.1796875000,,,
14.0546875000,56,4102.3076171875,,,
14.0625000000,56,4103.4614257813,,,
14.0703125000,56,4104.8715820313,,,
14.0781250000,56,4105.2563476563,,,
14.0859375000,56,4104.7436523438,,,
14.0937500000,56,4103.9741210938,33024,14.0996093750,0.0000000000
14.1015625000,56,4103.9741210938,,,
14.1093750000,56,4104.7436523438,,,
14.1171875000,56,4105.1284179688,,,
14.1250000000,56,4104.4873046875,,,
14.1328125000,56,4103.7177734375,,,
14.1406250000,56,4103.4614257813,,,
14.1484375000,56,4104.1025390625,,,
14.1562500000,56,4104.8715820313,,,
14.1640625000,56,4105.7690429688,,,
14.1718750000,56,4106.5385742188,,,
14.1796875000,56,4107.1796875000,,,
14.1875000000,56,4107.1796875000,,,
14.1953125000,56,4105.8974609375,,,
14.2031250000,56,4103.7177734375,,,
14.2109375000,56,4102.1796875000,,,
14.2187500000,56,4102.9487304688,,,
14.2265625000,56,4106.2822265625,,,
14.2343750000,56,4109.8715820313,,,
14.2421875000,56,4111.4101562500,,,
14.2500000000,57,4110.0000000000,,,
14.2578125000,57,4107.1796875000,,,
14.2656250000,57,4104.8715820313,,,
14.2734375000,57,4104.3588867188,,,
14.2812500000,57,4105.3847656250,,,
14.2890625000,57,4107.3076171875,,,
14.2968750000,57,4108.9741210938,,,
14.3046875000,57,4109.3588867188,,,
14.3125000000,57,4107.6923828125,,,
14.3203125000,57,4104.4873046875,,,
14.3281250000,57,4101.7949218750,,,
14.3359375000,57,4101.4101562500,,,
14.3437500000,57,4103.7177734375,,,
14.3515625000,57,4106.4101562500,,,
14.3593750000,57,4106.7949218750,,,
14.3671875000,57,4103.8461914063,,,
14.3750000000,57,4099.6152343750,,,
14.3828125000,57,4096.7949218750,,,
14.3906250000,57,4096.6665039063,,,
14.3984375000,57,4098.3334960938,33024,14.3994140625,0.0000000000
14.4062500000,57,4099.6152343750,,,
14.4140625000,57,4099.3588867188,,,
14.4218750000,57,4098.2050781250,,,
14.4296875000,57,4097.4360351563,,,
14.4375000000,57,4097.9487304688,,,
14.4453125000,57,4099.4873046875,,,
14.4531250000,57,4100.5126953125,,,
14.4609375000,57,4100.3847656250,,,
14.4687500000,57,4099.1025390625,,,
14.4765625000,57,4098.4614257813,,,
14.4843750000,57,4099.8715820313,,,
14.4921875000,57,4102.6923828125,,,
14.5000000000,58,4105.2563476563,,,
14.5078125000,58,4105.8974609375,,,
14.5156250000,58,4104.6152343750,,,
14.5234375000,58,4103.3334960938,,,
14.5312500000,58,4103.9741210938,,,
14.5390625000,58,4106.2822265625,,,
14.5468750000,58,4108.7177734375,,,
14.5546875000,58,4109.4873046875,,,
14.5625000000,58,4108.3334960938,,,
14.5703125000,58,4107.0512695313,,,
14.5781250000,58,4106.6665039063,,,
14.5859375000,58,4106.6665039063,,,
14.5937500000,58,4105.7690429688,,,
14.6015625000,58,4103.0771484375,,,
14.6093750000,58,4100.0000000000,,,
14.6171875000,58,4098.3334960938,,,
14.6250000000,58,4099.3588867188,,,
14.6328125000,58,4102.1796875000,,,
14.6406250000,58,4104.6152343750,,,
14.6484375000,58,4105.5126953125,,,
14.6562500000,58,4106.1538085938,,,
14.6640625000,58,4107.8203125000,,,
14.6718750000,58,4110.6411132813,,,
14.6796875000,58,4113.2050781250,,,
14.6875000000,58,4114.1025390625,,,
14.6953125000,58,4113.4614257813,33024,14.6992187500,0.0000000000
14.7031250000,58,4111.6665039063,,,
14.7109375000,58,4108.7177734375,,,
14.7187500000,58,4105.6411132813,,,
14.7265625000,58,4104.1025390625,,,
14.7343750000,58,4105.6411132813,,,
14.7421875000,58,4109.2309570313,,,
14.7500000000,59,4112.5639648438,,,
14.7578125000,59,4113.2050781250,,,
14.7656250000,59,4111.1538085938,,,
14.7734375000,59,4107.9487304688,,,
14.7812500000,59,4105.2563476563,,,
14.7890625000,59,4103.3334960938,,,
14.7968750000,59,4102.1796875000,,,
14.8046875000,59,4101.5385742188,,,
14.8125000000,59,4101.2822265625,,,
14.8203125000,59,4101.1538085938,,,
14.8281250000,59,4100.8974609375,,,
14.8359375000,59,4100.3847656250,,,
14.8437500000,59,4099.6152343750,,,
14.8515625000,59,4099.2309570313,,,
14.8593750000,59,4099.4873046875,,,
14.8671875000,59,4100.1284179688,,,
14.8750000000,59,4100.7690429688,,,
14.8828125000,59,4101.1538085938,,,
14.8906250000,59,4101.1538085938,,,
14.8984375000,59,4100.3847656250,,,
14.9062500000,59,4099.6152343750,,,
14.9140625000,59,4099.6152343750,,,
14.9218750000,59,4101.1538085938,,,
14.9296875000,59,4103.5898437500,,,
14.9375000000,59,4105.6411132813,,,
14.9453125000,59,4106.0258789063,,,
14.9531250000,59,4105.0000000000,,,
14.9609375000,59,4103.4614257813,,,
14.9687500000,59,4103.0771484375,,,
14.9765625000,59,4104.3588867188,,,
14.9843750000,59,4106.6665039063,,,
14.9921875000,59,4108.4614257813,33024,14.9990234375,0.0000000000
15.0000000000,60,4108.4614257813,,,
15.0078125000,60,4107.4360351563,,,
15.0156250000,60,4106.1538085938,,,
15.0234375000,60,4105.3847656250,,,
15.0312500000,60,4105.3847656250,,,
15.0390625000,60,4106.0258789063,,,
15.0468750000,60,4107.0512695313,,,
15.0546875000,60,4107.8203125000,,,
15.0625000000,60,4107.6923828125,,,
15.0703125000,60,4106.9228515625,,,
15.0781250000,60,4106.0258789063,,,
15.0859375000,60,4105.8974609375,,,
15.0937500000,60,4106.2822265625,,,
15.1015625000,60,4106.6665039063,,,
15.1093750000,60,4106.2822265625,,,
15.1171875000,60,4104.8715820313,,,
15.1250000000,60,4103.4614257813,,,
15.1328125000,60,4104.1025390625,,,
15.1406250000,60,4107.0512695313,,,
15.1484375000,60,4110.5126953125,,,
15.1562500000,60,4111.4101562500,,,
15.1640625000,60,4108.2050781250,,,
15.1718750000,60,4102.8203125000,,,
15.1796875000,60,4098.9741210938,,,
15.1875000000,60,4099.1025390625,,,
15.1953125000,60,4102.3076171875,,,
15.2031250000,60,4105.6411132813,,,
15.2109375000,60,4107.0512695313,,,
15.2187500000,60,4106.5385742188,,,
15.2265625000,60,4105.7690429688,,,
15.2343750000,60,4106.0258789063,,,
15.2421875000,60,4106.2822265625,,,
15.2500000000,61,4104.2309570313,,,
15.2578125000,61,4098.4614257813,,,
15.2656250000,61,4090.1281738281,,,
15.2734375000,61,4083.0769042969,,,
15.2812500000,61,4081.5385742188,,,
15.2890625000,61,4086.6667480469,,,
15.2968750000,61,4095.6411132813,33024,15.2998046875,0.0000000000
15.3046875000,61,4102.6923828125,,,
15.3125000000,61,4103.8461914063,,,
15.3203125000,61,4099.3588867188,,,
15.3281250000,61,4094.3588867188,,,
15.3359375000,61,4093.0769042969,,,
15.3437500000,61,4096.5385742188,,,
15.3515625000,61,4101.0258789063,,,
15.3593750000,61,4103.3334960938,,,
15.3671875000,61,4102.6923828125,,,
15.3750000000,61,4101.6665039063,,,
15.3828125000,61,4102.1796875000,,,
15.3906250000,61,4104.1025390625,,,
15.3984375000,61,4105.8974609375,,,
15.4062500000,61,4106.0258789063,,,
15.4140625000,61,4105.2563476563,,,
15.4218750000,61,4106.0258789063,,,
15.4296875000,61,4109.8715820313,,,
15.4375000000,61,4114.3588867188,,,
15.4453125000,61,4114.7436523438,,,
15.4531250000,61,4110.0000000000,,,
15.4609375000,61,4104.7436523438,,,
15.4687500000,61,4106.9228515625,,,
15.4765625000,61,4119.7436523438,,,
15.4843750000,61,4138.4614257813,,,
15.4921875000,61,4152.9487304688,,,
15.5000000000,62,4155.3847656250,,,
15.5078125000,62,4145.1284179688,,,
15.5156250000,62,4128.3334960938,,,
15.5234375000,62,4113.4614257813,,,
15.5312500000,62,4105.8974609375,,,
15.5390625000,62,4106.5385742188,,,
15.5468750000,62,4111.7949218750,,,
15.5546875000,62,4115.2563476563,,,
15.5625000000,62,4112.5639648438,,,
15.5703125000,62,4105.2563476563,,,
15.5781250000,62,4099.3588867188,,,
15.5859375000,62,4100.2563476563,,,
15.5937500000,62,4105.8974609375,33024,15.5996093750,0.0000000000
15.6015625000,62,4109.7436523438,,,
15.6093750000,62,4108.3334960938,,,
15.6171875000,62,4104.6152343750,,,
15.6250000000,62,4103.3334960938,,,
15.6328125000,62,4104.8715820313,,,
15.6406250000,62,4105.5126953125,,,
15.6484375000,62,4102.3076171875,,,
15.6562500000,62,4098.5898437500,,,
15.6640625000,62,4099.2309570313,,,
15.6718750000,62,4105.2563476563,,,
15.6796875000,62,4111.1538085938,,,
15.6875000000,62,4111.4101562500,,,
15.6953125000,62,4106.0258789063,,,
15.7031250000,62,4100.8974609375,,,
15.7109375000,62,4100.0000000000,,,
15.7187500000,62,4102.4360351563,,,
15.7265625000,62,4104.4873046875,,,
15.7343750000,62,4104.7436523438,,,
15.7421875000,62,4104.2309570313,,,
15.7500000000,63,4103.9741210938,,,
15.7578125000,63,4103.4614257813,,,
15.7656250000,63,4102.3076171875,,,
15.7734375000,63,4102.3076171875,,,
15.7812500000,63,4105.3847656250,,,
15.7890625000,63,4111.1538085938,,,
15.7968750000,63,4115.8974609375,,,
15.8046875000,63,4116.7949218750,,,
15.8125000000,63,4114.7436523438,,,
15.8203125000,63,4112.6923828125,,,
15.8281250000,63,4112.3076171875,,,
15.8359375000,63,4112.6923828125,,,
15.8437500000,63,4112.5639648438,,,
15.8515625000,63,4112.3076171875,,,
15.8593750000,63,4112.4360351563,,,
15.8671875000,63,4112.0512695313,,,
15.8750000000,63,4110.1284179688,,,
15.8828125000,63,4107.0512695313,,,
15.8906250000,63,4105.2563476563,,,
15.8984375000,63,4105.5126953125,33024,15.8994140625,0.0000000000
15.9062500000,63,4106.7949218750,,,
15.9140625000,63,4107.1796875000,,,
15.9218750000,63,4106.5385742188,,,
15.9296875000,63,4106.5385742188,,,
15.9375000000,63,4107.4360351563,,,
15.9453125000,63,4107.5639648438,,,
15.9531250000,63,4105.6411132813,,,
15.9609375000,63,4103.7177734375,,,
15.9687500000,63,4104.6152343750,,,
15.9765625000,63,4108.0771484375,,,
15.9843750000,63,4110.6411132813,,,
15.9921875000,63,4110.0000000000,,,
16.0000000000,64,4107.5639648438,,,
16.0078125000,64,4106.9228515625,,,
16.0156250000,64,4107.8203125000,,,
16.0234375000,64,4107.1796875000,,,
16.0312500000,64,4104.3588867188,,,
16.0390625000,64,4102.9487304688,,,
16.0468750000,64,4106.4101562500,,,
16.0546875000,64,4112.1796875000,,,
16.0625000000,64,4113.9741210938,,,
16.0703125000,64,4110.0000000000,,,
16.0781250000,64,4105.7690429688,,,
16.0859375000,64,4108.2050781250,,,
16.0937500000,64,4116.0258789063,,,
16.1015625000,64,4120.3847656250,,,
16.1093750000,64,4116.0258789063,,,
16.1171875000,64,4107.5639648438,,,
16.1250000000,64,4104.1025390625,,,
16.1328125000,64,4108.7177734375,,,
16.1406250000,64,4114.4873046875,,,
16.1484375000,64,4114.2309570313,,,
16.1562500000,64,4109.2309570313,,,
16.1640625000,64,4106.9228515625,,,
16.1718750000,64,4110.8974609375,,,
16.1796875000,64,4116.7949218750,,,
16.1875000000,64,4118.3334960938,,,
16.1953125000,64,4114.3588867188,33024,16.1992187500,0.0000000000
16.2031250000,64,4109.6152343750,,,
16.2109375000,64,4108.9741210938,,,
16.2187500000,64,4112.1796875000,,,
16.2265625000,64,4115.6411132813,,,
16.2343750000,64,4116.7949218750,,,
16.2421875000,64,4116.1538085938,,,
16.2500000000,65,4115.1284179688,,,
16.2578125000,65,4113.8461914063,,,
16.2656250000,65,4112.4360351563,,,
16.2734375000,65,4111.7949218750,,,
16.2812500000,65,4113.2050781250,,,
16.2890625000,65,4116.1538085938,,,
16.2968750000,65,4118.4614257813,,,
16.3046875000,65,4118.5898437500,,,
16.3125000000,65,4116.7949218750,,,
16.3203125000,65,4114.8715820313,,,
16.3281250000,65,4114.1025390625,,,
16.3359375000,65,4113.9741210938,,,
16.3437500000,65,4113.9741210938,,,
16.3515625000,65,4113.9741210938,,,
16.3593750000,65,4114.3588867188,,,
16.3671875000,65,4115.6411132813,,,
16.3750000000,65,4117.0512695313,,,
16.3828125000,65,4117.6923828125,,,
16.3906250000,65,4117.1796875000,,,
16.3984375000,65,4116.4101562500,,,
16.4062500000,65,4115.7690429688,,,
16.4140625000,65,4115.1284179688,,,
16.4218750000,65,4114.1025390625,,,
16.4296875000,65,4113.0771484375,,,
16.4375000000,65,4113.2050781250,,,
16.4453125000,65,4114.8715820313,,,
16.4531250000,65,4116.7949218750,,,
16.4609375000,65,4117.3076171875,,,
16.4687500000,65,4115.6411132813,,,
16.4765625000,65,4113.2050781250,,,
16.4843750000,65,4112.3076171875,,,
16.4921875000,65,4114.4873046875,33024,16.4990234375,0.0000000000
16.5000000000,66,4118.3334960938,,,
16.5078125000,66,4120.8974609375,,,
16.5156250000,66,4120.8974609375,,,
16.5234375000,66,4118.8461914063,,,
16.5312500000,66,4117.0512695313,,,
16.5390625000,66,4116.4101562500,,,
16.5468750000,66,4116.6665039063,,,
16.5546875000,66,4117.3076171875,,,
16.5625000000,66,4117.9487304688,,,
16.5703125000,66,4118.2050781250,,,
16.5781250000,66,4117.4360351563,,,
16.5859375000,66,4116.9228515625,,,
16.5937500000,66,4118.8461914063,,,
16.6015625000,66,4122.8203125000,,,
16.6093750000,66,4124.2309570313,,,
16.6171875000,66,4119.3588867188,,,
16.6250000000,66,4110.6411132813,,,
16.6328125000,66,4105.8974609375,,,
16.6406250000,66,4109.8715820313,,,
16.6484375000,66,4118.5898437500,,,
16.6562500000,66,4122.4360351563,,,
16.6640625000,66,4116.5385742188,,,
16.6718750000,66,4105.6411132813,,,
16.6796875000,66,4099.2309570313,,,
16.6875000000,66,4102.6923828125,,,
16.6953125000,66,4112.8203125000,,,
16.7031250000,66,4120.3847656250,,,
16.7109375000,66,4119.2309570313,,,
16.7187500000,66,4110.5126953125,,,
16.7265625000,66,4101.4101562500,,,
16.7343750000,66,4098.8461914063,,,
16.7421875000,66,4104.6152343750,,,
16.7500000000,67,4113.3334960938,,,
16.7578125000,67,4117.8203125000,,,
16.7656250000,67,4115.6411132813,,,
16.7734375000,67,4110.1284179688,,,
16.7812500000,67,4107.3076171875,,,
16.7890625000,67,4108.4614257813,,,
16.7968750000,67,4110.6411132813,33024,16.7998046875,0.0000000000
16.8046875000,67,4111.2822265625,,,
16.8125000000,67,4111.0258789063,,,
16.8203125000,67,4111.7949218750,,,
16.8281250000,67,4113.2050781250,,,
16.8359375000,67,4113.5898437500,,,
16.8437500000,67,4112.0512695313,,,
16.8515625000,67,4110.0000000000,,,
16.8593750000,67,4109.1025390625,,,
16.8671875000,67,4109.3588867188,,,
16.8750000000,67,4110.1284179688,,,
16.8828125000,67,4111.0258789063,,,
16.8906250000,67,4111.2822265625,,,
16.8984375000,67,4110.7690429688,,,
16.9062500000,67,4109.2309570313,,,
16.9140625000,67,4107.9487304688,,,
16.9218750000,67,4107.9487304688,,,
16.9296875000,67,4109.2309570313,,,
16.9375000000,67,4110.2563476563,,,
16.9453125000,67,4110.0000000000,,,
16.9531250000,67,4108.7177734375,,,
16.9609375000,67,4108.5898437500,,,
16.9687500000,67,4110.0000000000,,,
16.9765625000,67,4111.5385742188,,,
16.9843750000,67,4111.1538085938,,,
16.9921875000,67,4108.8461914063,,,
17.0000000000,68,4106.2822265625,,,
17.0078125000,68,4105.2563476563,,,
17.0156250000,68,4105.7690429688,,,
17.0234375000,68,4106.6665039063,,,
17.0312500000,68,4107.5639648438,,,
17.0390625000,68,4108.7177734375,,,
17.0468750000,68,4110.0000000000,,,
17.0546875000,68,4110.2563476563,,,
17.0625000000,68,4108.5898437500,,,
17.0703125000,68,4105.5126953125,,,
17.0781250000,68,4103.5898437500,,,
17.0859375000,68,4104.2309570313,,,
17.0937500000,68,4106.7949218750,33024,17.0996093750,0.0000000000
17.1015625000,68,4108.5898437500,,,
17.1093750000,68,4108.0771484375,,,
17.1171875000,68,4106.2822265625,,,
17.1250000000,68,4104.6152343750,,,
17.1328125000,68,4103.8461914063,,,
17.1406250000,68,4103.0771484375,,,
17.1484375000,68,4102.3076171875,,,
17.1562500000,68,4102.3076171875,,,
17.1640625000,68,4103.5898437500,,,
17.1718750000,68,4105.5126953125,,,
17.1796875000,68,4106.7949218750,,,
17.1875000000,68,4106.7949218750,,,
17.1953125000,68,4106.4101562500,,,
17.2031250000,68,4106.4101562500,,,
17.2109375000,68,4107.0512695313,,,
17.2187500000,68,4107.1796875000,,,
17.2265625000,68,4106.5385742188,,,
17.2343750000,68,4105.8974609375,,,
17.2421875000,68,4105.6411132813,,,
17.2500000000,69,4105.6411132813,,,
17.2578125000,69,4104.6152343750,,,
17.2656250000,69,4102.5639648438,,,
17.2734375000,69,4100.8974609375,,,
17.2812500000,69,4100.7690429688,,,
17.2890625000,69,4101.7949218750,,,
17.2968750000,69,4102.1796875000,,,
17.3046875000,69,4101.1538085938,,,
17.3125000000,69,4099.4873046875,,,
17.3203125000,69,4098.7177734375,,,
17.3281250000,69,4099.4873046875,,,
17.3359375000,69,4101.2822265625,,,
17.3437500000,69,4103.0771484375,,,
17.3515625000,69,4103.9741210938,,,
17.3593750000,69,4103.5898437500,,,
17.3671875000,69,4101.6665039063,,,
17.3750000000,69,4098.3334960938,,,
17.3828125000,69,4095.5129394531,,,
17.3906250000,69,4094.7436523438,,,
17.3984375000,69,4096.4101562500,33024,17.3994140625,0.0000000000
17.4062500000,69,4099.1025390625,,,
17.4140625000,69,4100.6411132813,,,
17.4218750000,69,4100.5126953125,,,
17.4296875000,69,4099.6152343750,,,
17.4375000000,69,4099.3588867188,,,
17.4453125000,69,4099.2309570313,,,
17.4531250000,69,4098.5898437500,,,
17.4609375000,69,4096.9228515625,,,
17.4687500000,69,4095.8974609375,,,
17.4765625000,69,4097.0512695313,,,
17.4843750000,69,4100.2563476563,,,
17.4921875000,69,4102.6923828125,,,
17.5000000000,70,4102.5639648438,,,
17.5078125000,70,4100.3847656250,,,
17.5156250000,70,4098.5898437500,,,
17.5234375000,70,4098.5898437500,,,
17.5312500000,70,4099.8715820313,,,
17.5390625000,70,4101.0258789063,,,
17.5468750000,70,4101.4101562500,,,
17.5546875000,70,4101.1538085938,,,
17.5625000000,70,4100.0000000000,,,
17.5703125000,70,4097.5639648438,,,
17.5781250000,70,4094.4870605469,,,
17.5859375000,70,4092.6923828125,,,
17.5937500000,70,4093.8461914063,,,
17.6015625000,70,4097.0512695313,,,
17.6093750000,70,4099.4873046875,,,
17.6171875000,70,4098.7177734375,,,
17.6250000000,70,4096.0258789063,,,
17.6328125000,70,4094.7436523438,,,
17.6406250000,70,4095.8974609375,,,
17.6484375000,70,4097.5639648438,,,
17.6562500000,70,4096.9228515625,,,
17.6640625000,70,4093.5898437500,,,
17.6718750000,70,4090.2563476563,,,
17.6796875000,70,4089.4870605469,,,
17.6875000000,70,4091.4101562500,,,
17.6953125000,70,4094.1025390625,33024,17.6992187500,0.0000000000
17.7031250000,70,4096.1538085938,,,
17.7109375000,70,4097.0512695313,,,
17.7187500000,70,4097.8203125000,,,
17.7265625000,70,4098.5898437500,,,
17.7343750000,70,4099.6152343750,,,
17.7421875000,70,4101.1538085938,,,
17.7500000000,71,4103.5898437500,,,
17.7578125000,71,4106.6665039063,,,
17.7656250000,71,4108.8461914063,,,
17.7734375000,71,4109.1025390625,,,
17.7812500000,71,4108.4614257813,,,
17.7890625000,71,4108.8461914063,,,
17.7968750000,71,4110.7690429688,,,
17.8046875000,71,4112.8203125000,,,
17.8125000000,71,4113.3334960938,,,
17.8203125000,71,4112.5639648438,,,
17.8281250000,71,4112.1796875000,,,
17.8359375000,71,4112.8203125000,,,
17.8437500000,71,4113.5898437500,,,
17.8515625000,71,4113.0771484375,,,
17.8593750000,71,4111.9228515625,,,
17.8671875000,71,4111.9228515625,,,
17.8750000000,71,4113.8461914063,,,
17.8828125000,71,4115.6411132813,,,
17.8906250000,71,4115.3847656250,,,
17.8984375000,71,4112.5639648438,,,
17.9062500000,71,4109.3588867188,,,
17.9140625000,71,4107.6923828125,,,
17.9218750000,71,4108.0771484375,,,
17.9296875000,71,4109.1025390625,,,
17.9375000000,71,4110.0000000000,,,
17.9453125000,71,4110.6411132813,,,
17.9531250000,71,4111.2822265625,,,
17.9609375000,71,4111.5385742188,,,
17.9687500000,71,4110.6411132813,,,
17.9765625000,71,4108.9741210938,,,
17.9843750000,71,4108.0771484375,,,
17.9921875000,71,4109.1025390625,33024,17.9990234375,0.0000000000
18.0000000000,72,4111.0258789063,,,
18.0078125000,72,4111.4101562500,,,
18.0156250000,72,4109.2309570313,,,
18.0234375000,72,4106.0258789063,,,
18.0312500000,72,4105.1284179688,,,
18.0390625000,72,4107.3076171875,,,
18.0468750000,72,4110.6411132813,,,
18.0546875000,72,4111.7949218750,,,
18.0625000000,72,4109.8715820313,,,
18.0703125000,72,4106.9228515625,,,
18.0781250000,72,4105.2563476563,,,
18.0859375000,72,4105.6411132813,,,
18.0937500000,72,4106.7949218750,,,
18.1015625000,72,4107.3076171875,,,
18.1093750000,72,4107.0512695313,,,
18.1171875000,72,4106.1538085938,,,
18.1250000000,72,4104.8715820313,,,
18.1328125000,72,4103.2050781250,,,
18.1406250000,72,4101.9228515625,,,
18.1484375000,72,4101.6665039063,,,
18.1562500000,72,4101.4101562500,,,
18.1640625000,72,4099.6152343750,,,
18.1718750000,72,4096.0258789063,,,
18.1796875000,72,4092.8205566406,,,
18.1875000000,72,4092.5642089844,,,
18.1953125000,72,4095.3845214844,,,
18.2031250000,72,4098.4614257813,,,
18.2109375000,72,4098.2050781250,,,
18.2187500000,72,4094.3588867188,,,
18.2265625000,72,4089.7436523438,,,
18.2343750000,72,4087.3076171875,,,
18.2421875000,72,4087.3076171875,,,
18.2500000000,73,4087.6923828125,,,
18.2578125000,73,4087.5642089844,,,
18.2656250000,73,4087.6923828125,,,
18.2734375000,73,4088.5898437500,,,
18.2812500000,73,4090.0000000000,,,
18.2890625000,73,4090.3845214844,,,
18.2968750000,73,4088.9743652344,33024,18.2998046875,0.0000000000
18.3046875000,73,4087.3076171875,,,
18.3125000000,73,4087.1794433594,,,
18.3203125000,73,4089.2307128906,,,
18.3281250000,73,4091.5385742188,,,
18.3359375000,73,4091.6667480469,,,
18.3437500000,73,4089.1025390625,,,
18.3515625000,73,4086.4101562500,,,
18.3593750000,73,4086.0256347656,,,
18.3671875000,73,4087.9487304688,,,
18.3750000000,73,4090.5129394531,,,
18.3828125000,73,4091.4101562500,,,
18.3906250000,73,4089.8718261719,,,
18.3984375000,73,4086.7949218750,,,
18.4062500000,73,4085.1281738281,,,
18.4140625000,73,4088.0769042969,,,
18.4218750000,73,4095.8974609375,,,
18.4296875000,73,4104.3588867188,,,
18.4375000000,73,4107.3076171875,,,
18.4453125000,73,4102.3076171875,,,
18.4531250000,73,4093.9743652344,,,
18.4609375000,73,4089.7436523438,,,
18.4687500000,73,4093.7180175781,,,
18.4765625000,73,4101.5385742188,,,
18.4843750000,73,4105.7690429688,,,
18.4921875000,73,4102.0512695313,,,
18.5000000000,74,4094.2307128906,,,
18.5078125000,74,4089.8718261719,,,
18.5156250000,74,4093.0769042969,,,
18.5234375000,74,4100.5126953125,,,
18.5312500000,74,4105.0000000000,,,
18.5390625000,74,4102.6923828125,,,
18.5468750000,74,4097.1796875000,,,
18.5546875000,74,4095.0000000000,,,
18.5625000000,74,4098.8461914063,,,
18.5703125000,74,4105.0000000000,,,
18.5781250000,74,4107.4360351563,,,
18.5859375000,74,4103.7177734375,,,
18.5937500000,74,4097.6923828125,33024,18.5996093750,0.0000000000
18.6015625000,74,4094.3588867188,,,
18.6093750000,74,4095.3845214844,,,
18.6171875000,74,4097.9487304688,,,
18.6250000000,74,4098.9741210938,,,
18.6328125000,74,4097.5639648438,,,
18.6406250000,74,4095.7692871094,,,
18.6484375000,74,4095.2563476563,,,
18.6562500000,74,4096.2822265625,,,
18.6640625000,74,4098.0771484375,,,
18.6718750000,74,4099.8715820313,,,
18.6796875000,74,4100.5126953125,,,
18.6875000000,74,4099.3588867188,,,
18.6953125000,74,4097.8203125000,,,
18.7031250000,74,4098.2050781250,,,
18.7109375000,74,4101.5385742188,,,
18.7187500000,74,4106.0258789063,,,
18.7265625000,74,4108.3334960938,,,
18.7343750000,74,4107.3076171875,,,
18.7421875000,74,4104.8715820313,,,
18.7500000000,75,4103.4614257813,,,
18.7578125000,75,4103.7177734375,,,
18.7656250000,75,4104.6152343750,,,
18.7734375000,75,4105.3847656250,,,
18.7812500000,75,4105.8974609375,,,
18.7890625000,75,4106.2822265625,,,
18.7968750000,75,4105.5126953125,,,
18.8046875000,75,4102.8203125000,,,
18.8125000000,75,4099.4873046875,,,
18.8203125000,75,4097.8203125000,,,
18.8281250000,75,4098.5898437500,,,
18.8359375000,75,4100.2563476563,,,
18.8437500000,75,4100.5126953125,,,
18.8515625000,75,4099.2309570313,,,
18.8593750000,75,4098.5898437500,,,
18.8671875000,75,4099.8715820313,,,
18.8750000000,75,4101.2822265625,,,
18.8828125000,75,4100.0000000000,,,
18.8906250000,75,4095.8974609375,,,
18.8984375000,75,4092.6923828125,33024,18.8994140625,0.0000000000
18.9062500000,75,4093.2050781250,,,
18.9140625000,75,4096.4101562500,,,
18.9218750000,75,4098.3334960938,,,
18.9296875000,75,4097.1796875000,,,
18.9375000000,75,4095.2563476563,,,
18.9453125000,75,4095.6411132813,,,
18.9531250000,75,4098.2050781250,,,
18.9609375000,75,4100.5126953125,,,
18.9687500000,75,4101.2822265625,,,
18.9765625000,75,4102.4360351563,,,
18.9843750000,75,4105.5126953125,,,
18.9921875000,75,4109.4873046875,,,
19.0000000000,76,4111.9228515625,,,
19.0078125000,76,4112.1796875000,,,
19.0156250000,76,4112.3076171875,,,
19.0234375000,76,4114.1025390625,,,
19.0312500000,76,4116.9228515625,,,
19.0390625000,76,4118.8461914063,,,
19.0468750000,76,4118.8461914063,,,
19.0546875000,76,4118.5898437500,,,
19.0625000000,76,4119.6152343750,,,
19.0703125000,76,4120.8974609375,,,
19.0781250000,76,4120.5126953125,,,
19.0859375000,76,4118.2050781250,,,
19.0937500000,76,4116.2822265625,,,
19.1015625000,76,4116.9228515625,,,
19.1093750000,76,4119.3588867188,,,
19.1171875000,76,4121.0258789063,,,
19.1250000000,76,4120.2563476563,,,
19.1328125000,76,4118.4614257813,,,
19.1406250000,76,4117.4360351563,,,
19.1484375000,76,4116.9228515625,,,
19.1562500000,76,4116.2822265625,,,
19.1640625000,76,4116.7949218750,,,
19.1718750000,76,4120.5126953125,,,
19.1796875000,76,4125.6411132813,,,
19.1875000000,76,4126.1538085938,,,
19.1953125000,76,4118.5898437500,33024,19.1992187500,0.0000000000
19.2031250000,76,4107.1796875000,,,
19.2109375000,76,4101.7949218750,,,
19.2187500000,76,4108.0771484375,,,
19.2265625000,76,4120.8974609375,,,
19.2343750000,76,4128.7177734375,,,
19.2421875000,76,4124.2309570313,,,
19.2500000000,77,4111.2822265625,,,
19.2578125000,77,4100.2563476563,,,
19.2656250000,77,4099.2309570313,,,
19.2734375000,77,4106.5385742188,,,
19.2812500000,77,4114.1025390625,,,
19.2890625000,77,4115.2563476563,,,
19.2968750000,77,4110.5126953125,,,
19.3046875000,77,4105.6411132813,,,
19.3125000000,77,4106.0258789063,,,
19.3203125000,77,4111.4101562500,,,
19.3281250000,77,4117.1796875000,,,
19.3359375000,77,4118.2050781250,,,
19.3437500000,77,4114.1025390625,,,
19.3515625000,77,4108.2050781250,,,
19.3593750000,77,4104.1025390625,,,
19.3671875000,77,4102.3076171875,,,
19.3750000000,77,4101.1538085938,,,
19.3828125000,77,4099.3588867188,,,
19.3906250000,77,4097.8203125000,,,
19.3984375000,77,4097.5639648438,,,
19.4062500000,77,4099.4873046875,,,
19.4140625000,77,4103.8461914063,,,
19.4218750000,77,4110.6411132813,,,
19.4296875000,77,4118.2050781250,,,
19.4375000000,77,4124.1025390625,,,
19.4453125000,77,4127.0512695313,,,
19.4531250000,77,4128.0771484375,,,
19.4609375000,77,4128.0771484375,,,
19.4687500000,77,4127.1796875000,,,
19.4765625000,77,4124.7436523438,,,
19.4843750000,77,4121.0258789063,,,
19.4921875000,77,4117.9487304688,33024,19.4990234375,0.0000000000
19.5000000000,78,4116.6665039063,,,
19.5078125000,78,4116.2822265625,,,
19.5156250000,78,4114.3588867188,,,
19.5234375000,78,4110.3847656250,,,
19.5312500000,78,4105.6411132813,,,
19.5390625000,78,4102.0512695313,,,
19.5468750000,78,4099.2309570313,,,
19.5546875000,78,4096.4101562500,,,
19.5625000000,78,4093.8461914063,,,
19.5703125000,78,4093.7180175781,,,
19.5781250000,78,4096.2822265625,,,
19.5859375000,78,4099.3588867188,,,
19.5937500000,78,4099.6152343750,,,
19.6015625000,78,4096.4101562500,,,
19.6093750000,78,4092.5642089844,,,
19.6171875000,78,4090.8974609375,,,
19.6250000000,78,4091.9230957031,,,
19.6328125000,78,4092.9487304688,,,
19.6406250000,78,4092.5642089844,,,
19.6484375000,78,4091.2819824219,,,
19.6562500000,78,4090.6411132813,,,
19.6640625000,78,4090.7692871094,,,
19.6718750000,78,4090.3845214844,,,
19.6796875000,78,4089.7436523438,,,
19.6875000000,78,4090.0000000000,,,
19.6953125000,78,4090.6411132813,,,
19.7031250000,78,4088.9743652344,,,
19.7109375000,78,4084.2307128906,,,
19.7187500000,78,4080.0000000000,,,
19.7265625000,78,4082.3076171875,,,
19.7343750000,78,4092.1794433594,,,
19.7421875000,78,4103.7177734375,,,
19.7500000000,79,4107.6923828125,,,
19.7578125000,79,4100.6411132813,,,
19.7656250000,79,4088.3332519531,,,
19.7734375000,79,4080.5129394531,,,
19.7812500000,79,4082.8205566406,,,
19.7890625000,79,4091.7949218750,,,
19.7968750000,79,4098.5898437500,33024,19.7998046875,0.0000000000
19.8046875000,79,4097.8203125000,,,
19.8125000000,79,4090.7692871094,,,
19.8203125000,79,4083.7180175781,,,
19.8281250000,79,4081.5385742188,,,
19.8359375000,79,4084.8718261719,,,
19.8437500000,79,4090.0000000000,,,
19.8515625000,79,4093.0769042969,,,
19.8593750000,79,4092.8205566406,,,
19.8671875000,79,4090.3845214844,,,
19.8750000000,79,4088.2050781250,,,
19.8828125000,79,4087.8205566406,,,
19.8906250000,79,4089.3588867188,,,
19.8984375000,79,4092.0512695313,,,
19.9062500000,79,4093.9743652344,,,
19.9140625000,79,4093.9743652344,,,
19.9218750000,79,4092.6923828125,,,
19.9296875000,79,4091.6667480469,,,
19.9375000000,79,4092.1794433594,,,
19.9453125000,79,4093.5898437500,,,
19.9531250000,79,4094.6154785156,,,
19.9609375000,79,4094.8718261719,,,
19.9687500000,79,4095.3845214844,,,
19.9765625000,79,4096.7949218750,,,
19.9843750000,79,4098.3334960938,,,
19.9921875000,79,4098.5898437500,,,
20.0000000000,80,4097.5639648438,,,
20.0078125000,80,4096.5385742188,,,
20.0156250000,80,4096.5385742188,,,
20.0234375000,80,4096.9228515625,,,
20.0312500000,80,4096.6665039063,,,
20.0390625000,80,4095.8974609375,,,
20.0468750000,80,4095.5129394531,,,
20.0546875000,80,4095.8974609375,,,
20.0625000000,80,4095.7692871094,,,
20.0703125000,80,4094.2307128906,,,
20.0781250000,80,4092.3076171875,,,
20.0859375000,80,4091.9230957031,,,
20.0937500000,80,4093.7180175781,33024,20.0996093750,0.0000000000
20.1015625000,80,4096.0258789063,,,
20.1093750000,80,4096.1538085938,,,
20.1171875000,80,4094.3588867188,,,
20.1250000000,80,4092.8205566406,,,
20.1328125000,80,4093.2050781250,,,
20.1406250000,80,4094.6154785156,,,
20.1484375000,80,4095.0000000000,,,
20.1562500000,80,4094.2307128906,,,
20.1640625000,80,4094.3588867188,,,
20.1718750000,80,4096.4101562500,,,
20.1796875000,80,4098.9741210938,,,
20.1875000000,80,4099.3588867188,,,
20.1953125000,80,4097.4360351563,,,
20.2031250000,80,4095.8974609375,,,
20.2109375000,80,4097.4360351563,,,
20.2187500000,80,4101.4101562500,,,
20.2265625000,80,4104.2309570313,,,
20.2343750000,80,4103.5898437500,,,
20.2421875000,80,4100.3847656250,,,
20.2500000000,81,4097.8203125000,,,
20.2578125000,81,4098.0771484375,,,
20.2656250000,81,4100.5126953125,,,
20.2734375000,81,4102.8203125000,,,
20.2812500000,81,4103.5898437500,,,
20.2890625000,81,4103.5898437500,,,
20.2968750000,81,4103.7177734375,,,
20.3046875000,81,4104.2309570313,,,
20.3125000000,81,4104.3588867188,,,
20.3203125000,81,4103.7177734375,,,
20.3281250000,81,4103.0771484375,,,
20.3359375000,81,4103.5898437500,,,
20.3437500000,81,4105.0000000000,,,
20.3515625000,81,4106.2822265625,,,
20.3593750000,81,4106.2822265625,,,
20.3671875000,81,4105.5126953125,,,
20.3750000000,81,4105.0000000000,,,
20.3828125000,81,4105.1284179688,,,
20.3906250000,81,4105.7690429688,,,
20.3984375000,81,4106.1538085938,33024,20.3994140625,0.0000000000
20.4062500000,81,4106.5385742188,,,
20.4140625000,81,4107.1796875000,,,
20.4218750000,81,4107.5639648438,,,
20.4296875000,81,4107.1796875000,,,
20.4375000000,81,4106.1538085938,,,
20.4453125000,81,4105.6411132813,,,
20.4531250000,81,4106.0258789063,,,
20.4609375000,81,4106.7949218750,,,
20.4687500000,81,4106.2822265625,,,
20.4765625000,81,4104.7436523438,,,
20.4843750000,81,4103.8461914063,,,
20.4921875000,81,4104.3588867188,,,
20.5000000000,82,4105.3847656250,,,
20.5078125000,82,4104.7436523438,,,
20.5156250000,82,4102.5639648438,,,
20.5234375000,82,4100.7690429688,,,
20.5312500000,82,4101.5385742188,,,
20.5390625000,82,4104.1025390625,,,
20.5468750000,82,4105.8974609375,,,
20.5546875000,82,4105.2563476563,,,
20.5625000000,82,4102.9487304688,,,
20.5703125000,82,4100.5126953125,,,
20.5781250000,82,4098.9741210938,,,
20.5859375000,82,4098.0771484375,,,
20.5937500000,82,4097.9487304688,,,
20.6015625000,82,4099.2309570313,,,
20.6093750000,82,4101.4101562500,,,
20.6171875000,82,4102.3076171875,,,
20.6250000000,82,4100.7690429688,,,
20.6328125000,82,4098.4614257813,,,
20.6406250000,82,4098.2050781250,,,
20.6484375000,82,4100.0000000000,,,
20.6562500000,82,4101.2822265625,,,
20.6640625000,82,4099.7436523438,,,
20.6718750000,82,4096.6665039063,,,
20.6796875000,82,4095.5129394531,,,
20.6875000000,82,4097.1796875000,,,
20.6953125000,82,4099.1025390625,33024,20.6992187500,0.0000000000
20.7031250000,82,4098.3334960938,,,
20.7109375000,82,4095.1281738281,,,
20.7187500000,82,4093.2050781250,,,
20.7265625000,82,4094.8718261719,,,
20.7343750000,82,4098.7177734375,,,
20.7421875000,82,4100.7690429688,,,
20.7500000000,83,4099.3588867188,,,
20.7578125000,83,4096.5385742188,,,
20.7656250000,83,4095.1281738281,,,
20.7734375000,83,4095.7692871094,,,
20.7812500000,83,4097.0512695313,,,
20.7890625000,83,4097.6923828125,,,
20.7968750000,83,4097.9487304688,,,
20.8046875000,83,4098.7177734375,,,
20.8125000000,83,4099.1025390625,,,
20.8203125000,83,4098.4614257813,,,
20.8281250000,83,4096.6665039063,,,
20.8359375000,83,4095.8974609375,,,
20.8437500000,83,4097.1796875000,,,
20.8515625000,83,4099.6152343750,,,
20.8593750000,83,4100.6411132813,,,
20.8671875000,83,4099.7436523438,,,
20.8750000000,83,4098.7177734375,,,
20.8828125000,83,4099.6152343750,,,
20.8906250000,83,4102.0512695313,,,
20.8984375000,83,4103.7177734375,,,
20.9062500000,83,4103.0771484375,,,
20.9140625000,83,4101.1538085938,,,
20.9218750000,83,4099.7436523438,,,
20.9296875000,83,4099.3588867188,,,
20.9375000000,83,4098.5898437500,,,
20.9453125000,83,4096.7949218750,,,
20.9531250000,83,4095.8974609375,,,
20.9609375000,83,4097.9487304688,,,
20.9687500000,83,4102.6923828125,,,
20.9765625000,83,4106.4101562500,,,
20.9843750000,83,4106.2822265625,,,
20.9921875000,83,4102.8203125000,33024,20.9990234375,0.0000000000
21.0000000000,84,4099.2309570313,,,
21.0078125000,84,4098.4614257813,,,
21.0156250000,84,4100.5126953125,,,
21.0234375000,84,4103.4614257813,,,
21.0312500000,84,4105.2563476563,,,
21.0390625000,84,4105.2563476563,,,
21.0468750000,84,4103.8461914063,,,
21.0546875000,84,4101.6665039063,,,
21.0625000000,84,4100.1284179688,,,
21.0703125000,84,4100.1284179688,,,
21.0781250000,84,4101.9228515625,,,
21.0859375000,84,4104.2309570313,,,
21.0937500000,84,4104.7436523438,,,
21.1015625000,84,4102.8203125000,,,
21.1093750000,84,4099.6152343750,,,
21.1171875000,84,4097.6923828125,,,
21.1250000000,84,4098.5898437500,,,
21.1328125000,84,4101.2822265625,,,
21.1406250000,84,4103.4614257813,,,
21.1484375000,84,4104.1025390625,,,
21.1562500000,84,4103.8461914063,,,
21.1640625000,84,4103.7177734375,,,
21.1718750000,84,4103.7177734375,,,
21.1796875000,84,4103.5898437500,,,
21.1875000000,84,4103.0771484375,,,
21.1953125000,84,4102.8203125000,,,
21.2031250000,84,4102.9487304688,,,
21.2109375000,84,4103.0771484375,,,
21.2187500000,84,4102.0512695313,,,
21.2265625000,84,4100.0000000000,,,
21.2343750000,84,4098.5898437500,,,
21.2421875000,84,4099.4873046875,,,
21.2500000000,85,4102.1796875000,,,
21.2578125000,85,4104.6152343750,,,
21.2656250000,85,4105.3847656250,,,
21.2734375000,85,4104.7436523438,,,
21.2812500000,85,4103.7177734375,,,
21.2890625000,85,4103.2050781250,,,
21.2968750000,85,4102.9487304688,33024,21.2998046875,0.0000000000
21.3046875000,85,4102.9487304688,,,
21.3125000000,85,4103.8461914063,,,
21.3203125000,85,4105.2563476563,,,
21.3281250000,85,4105.6411132813,,,
21.3359375000,85,4103.7177734375,,,
21.3437500000,85,4100.2563476563,,,
21.3515625000,85,4097.4360351563,,,
21.3593750000,85,4097.5639648438,,,
21.3671875000,85,4100.3847656250,,,
21.3750000000,85,4103.3334960938,,,
21.3828125000,85,4104.1025390625,,,
21.3906250000,85,4103.3334960938,,,
21.3984375000,85,4102.6923828125,,,
21.4062500000,85,4102.9487304688,,,
21.4140625000,85,4103.0771484375,,,
21.4218750000,85,4102.5639648438,,,
21.4296875000,85,4102.1796875000,,,
21.4375000000,85,4103.0771484375,,,
21.4453125000,85,4104.6152343750,,,
21.4531250000,85,4105.2563476563,,,
21.4609375000,85,4103.7177734375,,,
21.4687500000,85,4101.4101562500,,,
21.4765625000,85,4100.6411132813,,,
21.4843750000,85,4102.0512695313,,,
21.4921875000,85,4104.1025390625,,,
21.5000000000,86,4104.8715820313,,,
21.5078125000,86,4104.3588867188,,,
21.5156250000,86,4103.8461914063,,,
21.5234375000,86,4104.1025390625,,,
21.5312500000,86,4104.6152343750,,,
21.5390625000,86,4104.8715820313,,,
21.5468750000,86,4105.1284179688,,,
21.5546875000,86,4105.5126953125,,,
21.5625000000,86,4105.1284179688,,,
21.5703125000,86,4103.0771484375,,,
21.5781250000,86,4100.1284179688,,,
21.5859375000,86,4098.4614257813,,,
21.5937500000,86,4099.4873046875,33024,21.5996093750,0.0000000000
21.6015625000,86,4102.1796875000,,,
21.6093750000,86,4103.8461914063,,,
21.6171875000,86,4103.0771484375,,,
21.6250000000,86,4100.8974609375,,,
21.6328125000,86,4099.8715820313,,,
21.6406250000,86,4101.4101562500,,,
21.6484375000,86,4104.2309570313,,,
21.6562500000,86,4105.8974609375,,,
21.6640625000,86,4105.6411132813,,,
21.6718750000,86,4104.7436523438,,,
21.6796875000,86,4104.6152343750,,,
21.6875000000,86,4105.1284179688,,,
21.6953125000,86,4105.3847656250,,,
21.7031250000,86,4104.4873046875,,,
21.7109375000,86,4103.5898437500,,,
21.7187500000,86,4103.9741210938,,,
21.7265625000,86,4105.3847656250,,,
21.7343750000,86,4106.7949218750,,,
21.7421875000,86,4106.9228515625,,,
21.7500000000,87,4106.1538085938,,,
21.7578125000,87,4105.5126953125,,,
21.7656250000,87,4105.0000000000,,,
21.7734375000,87,4104.3588867188,,,
21.7812500000,87,4103.4614257813,,,
21.7890625000,87,4103.7177734375,,,
21.7968750000,87,4105.5126953125,,,
21.8046875000,87,4107.4360351563,,,
21.8125000000,87,4107.3076171875,,,
21.8203125000,87,4105.1284179688,,,
21.8281250000,87,4103.0771484375,,,
21.8359375000,87,4103.0771484375,,,
21.8437500000,87,4104.3588867188,,,
21.8515625000,87,4105.3847656250,,,
21.8593750000,87,4105.1284179688,,,
21.8671875000,87,4104.2309570313,,,
21.8750000000,87,4103.5898437500,,,
21.8828125000,87,4103.0771484375,,,
21.8906250000,87,4102.1796875000,,,
21.8984375000,87,4101.1538085938,33024,21.8994140625,0.0000000000
21.9062500000,87,4101.2822265625,,,
21.9140625000,87,4102.8203125000,,,
21.9218750000,87,4104.7436523438,,,
21.9296875000,87,4105.1284179688,,,
21.9375000000,87,4103.8461914063,,,
21.9453125000,87,4102.6923828125,,,
21.9531250000,87,4103.0771484375,,,
21.9609375000,87,4104.1025390625,,,
21.9687500000,87,4104.1025390625,,,
21.9765625000,87,4102.5639648438,,,
21.9843750000,87,4101.0258789063,,,
21.9921875000,87,4101.0258789063,,,
22.0000000000,88,4102.5639648438,,,
22.0078125000,88,4103.8461914063,,,
22.0156250000,88,4103.7177734375,,,
22.0234375000,88,4102.6923828125,,,
22.0312500000,88,4102.1796875000,,,
22.0390625000,88,4102.9487304688,,,
22.0468750000,88,4104.1025390625,,,
22.0546875000,88,4105.1284179688,,,
22.0625000000,88,4105.7690429688,,,
22.0703125000,88,4106.0258789063,,,
22.0781250000,88,4105.0000000000,,,
22.0859375000,88,4101.9228515625,,,
22.0937500000,88,4097.9487304688,,,
22.1015625000,88,4095.7692871094,,,
22.1093750000,88,4097.5639648438,,,
22.1171875000,88,4101.7949218750,,,
22.1250000000,88,4104.7436523438,,,
22.1328125000,88,4104.2309570313,,,
22.1406250000,88,4101.2822265625,,,
22.1484375000,88,4099.3588867188,,,
22.1562500000,88,4100.2563476563,,,
22.1640625000,88,4102.8203125000,,,
22.1718750000,88,4105.0000000000,,,
22.1796875000,88,4105.5126953125,,,
22.1875000000,88,4104.7436523438,,,
22.1953125000,88,4103.5898437500,33024,22.1992187500,0.0000000000
22.2031250000,88,4102.1796875000,,,
22.2109375000,88,4100.7690429688,,,
22.2187500000,88,4100.0000000000,,,
22.2265625000,88,4100.7690429688,,,
22.2343750000,88,4102.9487304688,,,
22.2421875000,88,4104.8715820313,,,
22.2500000000,89,4104.7436523438,,,
22.2578125000,89,4103.0771484375,,,
22.2656250000,89,4102.0512695313,,,
22.2734375000,89,4103.2050781250,,,
22.2812500000,89,4105.1284179688,,,
22.2890625000,89,4105.6411132813,,,
22.2968750000,89,4104.2309570313,,,
22.3046875000,89,4102.5639648438,,,
22.3125000000,89,4102.1796875000,,,
22.3203125000,89,4102.9487304688,,,
22.3281250000,89,4103.3334960938,,,
22.3359375000,89,4102.8203125000,,,
22.3437500000,89,4102.3076171875,,,
22.3515625000,89,4103.0771484375,,,
22.3593750000,89,4105.0000000000,,,
22.3671875000,89,4106.2822265625,,,
22.3750000000,89,4106.1538085938,,,
22.3828125000,89,4105.1284179688,,,
22.3906250000,89,4104.4873046875,,,
22.3984375000,89,4103.9741210938,,,
22.4062500000,89,4102.9487304688,,,
22.4140625000,89,4102.0512695313,,,
22.4218750000,89,4102.3076171875,,,
22.4296875000,89,4103.5898437500,,,
22.4375000000,89,4104.8715820313,,,
22.4453125000,89,4104.6152343750,,,
22.4531250000,89,4103.0771484375,,,
22.4609375000,89,4101.7949218750,,,
22.4687500000,89,4101.6665039063,,,
22.4765625000,89,4101.6665039063,,,
22.4843750000,89,4101.1538085938,,,
22.4921875000,89,4099.8715820313,33024,22.4990234375,0.0000000000
22.5000000000,90,4099.7436523438,,,
22.5078125000,90,4101.4101562500,,,
22.5156250000,90,4103.8461914063,,,
22.5234375000,90,4104.6152343750,,,
22.5312500000,90,4103.2050781250,,,
22.5390625000,90,4101.1538085938,,,
22.5468750000,90,4100.6411132813,,,
22.5546875000,90,4102.0512695313,,,
22.5625000000,90,4103.7177734375,,,
22.5703125000,90,4104.6152343750,,,
22.5781250000,90,4105.3847656250,,,
22.5859375000,90,4106.2822265625,,,
22.5937500000,90,4106.7949218750,,,
22.6015625000,90,4105.3847656250,,,
22.6093750000,90,4102.3076171875,,,
22.6171875000,90,4099.8715820313,,,
22.6250000000,90,4100.3847656250,,,
22.6328125000,90,4103.3334960938,,,
22.6406250000,90,4106.1538085938,,,
22.6484375000,90,4106.9228515625,,,
22.6562500000,90,4105.6411132813,,,
22.6640625000,90,4104.2309570313,,,
22.6718750000,90,4103.4614257813,,,
22.6796875000,90,4102.8203125000,,,
22.6875000000,90,4101.4101562500,,,
22.6953125000,90,4099.8715820313,,,
22.7031250000,90,4099.7436523438,,,
22.7109375000,90,4102.0512695313,,,
22.7187500000,90,4105.1284179688,,,
22.7265625000,90,4106.6665039063,,,
22.7343750000,90,4105.7690429688,,,
22.7421875000,90,4103.9741210938,,,
22.7500000000,91,4103.5898437500,,,
22.7578125000,91,4104.6152343750,,,
22.7656250000,91,4105.7690429688,,,
22.7734375000,91,4106.5385742188,,,
22.7812500000,91,4107.0512695313,,,
22.7890625000,91,4107.4360351563,,,
22.7968750000,91,4107.0512695313,33024,22.7998046875,0.0000000000
22.8046875000,91,4105.3847656250,,,
22.8125000000,91,4102.8203125000,,,
22.8203125000,91,4101.4101562500,,,
22.8281250000,91,4102.3076171875,,,
22.8359375000,91,4104.8715820313,,,
22.8437500000,91,4107.0512695313,,,
22.8515625000,91,4107.4360351563,,,
22.8593750000,91,4106.4101562500,,,
22.8671875000,91,4104.3588867188,,,
22.8750000000,91,4102.0512695313,,,
22.8828125000,91,4100.2563476563,,,
22.8906250000,91,4100.5126953125,,,
22.8984375000,91,4102.8203125000,,,
22.9062500000,91,4105.6411132813,,,
22.9140625000,91,4106.2822265625,,,
22.9218750000,91,4103.7177734375,,,
22.9296875000,91,4100.5126953125,,,
22.9375000000,91,4099.7436523438,,,
22.9453125000,91,4102.3076171875,,,
22.9531250000,91,4105.8974609375,,,
22.9609375000,91,4107.4360351563,,,
22.9687500000,91,4106.0258789063,,,
22.9765625000,91,4103.3334960938,,,
22.9843750000,91,4101.7949218750,,,
22.9921875000,91,4102.3076171875,,,
23.0000000000,92,4103.5898437500,,,
23.0078125000,92,4104.4873046875,,,
23.0156250000,92,4104.7436523438,,,
23.0234375000,92,4104.8715820313,,,
23.0312500000,92,4104.7436523438,,,
23.0390625000,92,4104.1025390625,,,
23.0468750000,92,4103.0771484375,,,
23.0546875000,92,4102.3076171875,,,
23.0625000000,92,4102.5639648438,,,
23.0703125000,92,4103.8461914063,,,
23.0781250000,92,4105.0000000000,,,
23.0859375000,92,4105.6411132813,,,
23.0937500000,92,4105.8974609375,33024,23.0996093750,0.0000000000
23.1015625000,92,4105.8974609375,,,
23.1093750000,92,4105.5126953125,,,
23.1171875000,92,4104.2309570313,,,
23.1250000000,92,4102.5639648438,,,
23.1328125000,92,4101.7949218750,,,
23.1406250000,92,4102.4360351563,,,
23.1484375000,92,4103.7177734375,,,
23.1562500000,92,4103.9741210938,,,
23.1640625000,92,4103.4614257813,,,
23.1718750000,92,4103.8461914063,,,
23.1796875000,92,4106.0258789063,,,
23.1875000000,92,4108.7177734375,,,
23.1953125000,92,4108.9741210938,,,
23.2031250000,92,4105.7690429688,,,
23.2109375000,92,4101.5385742188,,,
23.2187500000,92,4099.6152343750,,,
23.2265625000,92,4100.8974609375,,,
23.2343750000,92,4103.2050781250,,,
23.2421875000,92,4103.8461914063,,,
23.2500000000,93,4102.9487304688,,,
23.2578125000,93,4102.3076171875,,,
23.2656250000,93,4103.3334960938,,,
23.2734375000,93,4105.1284179688,,,
23.2812500000,93,4105.7690429688,,,
23.2890625000,93,4104.7436523438,,,
23.2968750000,93,4103.4614257813,,,
23.3046875000,93,4103.4614257813,,,
23.3125000000,93,4104.1025390625,,,
23.3203125000,93,4104.7436523438,,,
23.3281250000,93,4104.8715820313,,,
23.3359375000,93,4105.0000000000,,,
23.3437500000,93,4105.6411132813,,,
23.3515625000,93,4105.8974609375,,,
23.3593750000,93,4105.5126953125,,,
23.3671875000,93,4105.0000000000,,,
23.3750000000,93,4105.2563476563,,,
23.3828125000,93,4106.2822265625,,,
23.3906250000,93,4106.5385742188,,,
23.3984375000,93,4105.0000000000,33024,23.3994140625,0.0000000000
23.4062500000,93,4102.8203125000,,,
23.4140625000,93,4102.0512695313,,,
23.4218750000,93,4103.7177734375,,,
23.4296875000,93,4106.1538085938,,,
23.4375000000,93,4107.0512695313,,,
23.4453125000,93,4106.1538085938,,,
23.4531250000,93,4105.0000000000,,,
23.4609375000,93,4104.4873046875,,,
23.4687500000,93,4104.3588867188,,,
23.4765625000,93,4103.3334960938,,,
23.4843750000,93,4101.7949218750,,,
23.4921875000,93,4100.8974609375,,,
23.5000000000,94,4101.7949218750,,,
23.5078125000,94,4103.7177734375,,,
23.5156250000,94,4104.8715820313,,,
23.5234375000,94,4104.7436523438,,,
23.5312500000,94,4104.6152343750,,,
23.5390625000,94,4105.5126953125,,,
23.5468750000,94,4107.3076171875,,,
23.5546875000,94,4108.8461914063,,,
23.5625000000,94,4109.2309570313,,,
23.5703125000,94,4108.9741210938,,,
23.5781250000,94,4108.3334960938,,,
23.5859375000,94,4107.5639648438,,,
23.5937500000,94,4106.7949218750,,,
23.6015625000,94,4106.5385742188,,,
23.6093750000,94,4107.8203125000,,,
23.6171875000,94,4110.0000000000,,,
23.6250000000,94,4111.9228515625,,,
23.6328125000,94,4112.3076171875,,,
23.6406250000,94,4111.4101562500,,,
23.6484375000,94,4110.2563476563,,,
23.6562500000,94,4109.7436523438,,,
23.6640625000,94,4109.6152343750,,,
23.6718750000,94,4108.4614257813,,,
23.6796875000,94,4106.5385742188,,,
23.6875000000,94,4105.2563476563,,,
23.6953125000,94,4105.7690429688,33024,23.6992187500,0.0000000000
23.7031250000,94,4107.0512695313,,,
23.7109375000,94,4107.1796875000,,,
23.7187500000,94,4105.1284179688,,,
23.7265625000,94,4102.6923828125,,,
23.7343750000,94,4102.3076171875,,,
23.7421875000,94,4104.2309570313,,,
23.7500000000,95,4106.7949218750,,,
23.7578125000,95,4107.6923828125,,,
23.7656250000,95,4106.9228515625,,,
23.7734375000,95,4106.0258789063,,,
23.7812500000,95,4105.8974609375,,,
23.7890625000,95,4106.2822265625,,,
23.7968750000,95,4106.4101562500,,,
23.8046875000,95,4106.9228515625,,,
23.8125000000,95,4108.3334960938,,,
23.8203125000,95,4109.8715820313,,,
23.8281250000,95,4109.6152343750,,,
23.8359375000,95,4106.7949218750,,,
23.8437500000,95,4103.3334960938,,,
23.8515625000,95,4101.9228515625,,,
23.8593750000,95,4102.5639648438,,,
23.8671875000,95,4103.9741210938,,,
23.8750000000,95,4105.0000000000,,,
23.8828125000,95,4106.7949218750,,,
23.8906250000,95,4109.6152343750,,,
23.8984375000,95,4111.1538085938,,,
23.9062500000,95,4108.8461914063,,,
23.9140625000,95,4103.9741210938,,,
23.9218750000,95,4101.2822265625,,,
23.9296875000,95,4104.3588867188,,,
23.9375000000,95,4110.8974609375,,,
23.9453125000,95,4115.0000000000,,,
23.9531250000,95,4112.9487304688,,,
23.9609375000,95,4107.6923828125,,,
23.9687500000,95,4105.1284179688,,,
23.9765625000,95,4106.7949218750,,,
23.9843750000,95,4109.3588867188,,,
23.9921875000,95,4109.6152343750,33024,23.9990234375,0.0000000000
24.0000000000,96,4108.4614257813,,,
24.0078125000,96,4108.7177734375,,,
24.0156250000,96,4110.8974609375,,,
24.0234375000,96,4112.0512695313,,,
24.0312500000,96,4110.6411132813,,,
24.0390625000,96,4108.4614257813,,,
24.0468750000,96,4108.4614257813,,,
24.0546875000,96,4109.8715820313,,,
24.0625000000,96,4109.7436523438,,,
24.0703125000,96,4107.1796875000,,,
24.0781250000,96,4105.6411132813,,,
24.0859375000,96,4107.6923828125,,,
24.0937500000,96,4111.0258789063,,,
24.1015625000,96,4110.1284179688,,,
24.1093750000,96,4103.4614257813,,,
24.1171875000,96,4096.7949218750,,,
24.1250000000,96,4096.6665039063,,,
24.1328125000,96,4103.2050781250,,,
24.1406250000,96,4109.2309570313,,,
24.1484375000,96,4109.6152343750,,,
24.1562500000,96,4106.0258789063,,,
24.1640625000,96,4103.0771484375,,,
24.1718750000,96,4100.1284179688,,,
24.1796875000,96,4094.2307128906,,,
24.1875000000,96,4088.8461914063,,,
24.1953125000,96,4092.5642089844,,,
24.2031250000,96,4105.6411132813,,,
24.2109375000,96,4110.7690429688,,,
24.2187500000,96,4085.5129394531,,,
24.2265625000,96,4030.5129394531,,,
24.2343750000,96,3980.1281738281,,,
24.2421875000,96,3975.5129394531,,,
24.2500000000,97,4023.9743652344,,,
24.2578125000,97,4087.9487304688,,,
24.2656250000,97,4121.9228515625,,,
24.2734375000,97,4114.7436523438,,,
24.2812500000,97,4091.5385742188,,,
24.2890625000,97,4079.7436523438,,,
24.2968750000,97,4080.6411132813,33024,24.2998046875,0.0000000000
24.3046875000,97,4079.6154785156,,,
24.3125000000,97,4073.4614257813,,,
24.3203125000,97,4075.5129394531,,,
24.3281250000,97,4093.4614257813,,,
24.3359375000,97,4114.7436523438,,,
24.3437500000,97,4120.0000000000,,,
24.3515625000,97,4106.7949218750,,,
24.3593750000,97,4091.9230957031,,,
24.3671875000,97,4090.3845214844,,,
24.3750000000,97,4098.7177734375,,,
24.3828125000,97,4103.0771484375,,,
24.3906250000,97,4099.3588867188,,,
24.3984375000,97,4095.2563476563,,,
24.4062500000,97,4096.6665039063,,,
24.4140625000,97,4098.9741210938,,,
24.4218750000,97,4095.7692871094,,,
24.4296875000,97,4089.8718261719,,,
24.4375000000,97,4089.2307128906,,,
24.4453125000,97,4095.0000000000,,,
24.4531250000,97,4099.2309570313,,,
24.4609375000,97,4096.5385742188,,,
24.4687500000,97,4091.2819824219,,,
24.4765625000,97,4091.6667480469,,,
24.4843750000,97,4097.6923828125,,,
24.4921875000,97,4101.2822265625,,,
24.5000000000,98,4097.8203125000,,,
24.5078125000,98,4092.6923828125,,,
24.5156250000,98,4093.9743652344,,,
24.5234375000,98,4101.2822265625,,,
24.5312500000,98,4106.1538085938,,,
24.5390625000,98,4103.4614257813,,,
24.5468750000,98,4098.2050781250,,,
24.5546875000,98,4098.5898437500,,,
24.5625000000,98,4104.1025390625,,,
24.5703125000,98,4107.0512695313,,,
24.5781250000,98,4102.8203125000,,,
24.5859375000,98,4096.7949218750,,,
24.5937500000,98,4097.6923828125,33024,24.5996093750,0.0000000000
24.6015625000,98,4105.2563476563,,,
24.6093750000,98,4110.3847656250,,,
24.6171875000,98,4106.0258789063,,,
24.6250000000,98,4097.3076171875,,,
24.6328125000,98,4094.6154785156,,,
24.6406250000,98,4100.1284179688,,,
24.6484375000,98,4105.5126953125,,,
24.6562500000,98,4103.5898437500,,,
24.6640625000,98,4098.0771484375,,,
24.6718750000,98,4098.3334960938,,,
24.6796875000,98,4106.4101562500,,,
24.6875000000,98,4113.8461914063,,,
24.6953125000,98,4111.2822265625,,,
24.7031250000,98,4100.2563476563,,,
24.7109375000,98,4092.0512695313,,,
24.7187500000,98,4095.5129394531,,,
24.7265625000,98,4107.5639648438,,,
24.7343750000,98,4116.2822265625,,,
24.7421875000,98,4113.2050781250,,,
24.7500000000,99,4098.4614257813,,,
24.7578125000,99,4077.9487304688,,,
24.7656250000,99,4059.8718261719,,,
24.7734375000,99,4052.9487304688,,,
24.7812500000,99,4065.2563476563,,,
24.7890625000,99,4095.2563476563,,,
24.7968750000,99,4126.9228515625,,,
24.8046875000,99,4139.3588867188,,,
24.8125000000,99,4125.1284179688,,,
24.8203125000,99,4098.7177734375,,,
24.8281250000,99,4083.0769042969,,,
24.8359375000,99,4088.4614257813,,,
24.8437500000,99,4104.4873046875,,,
24.8515625000,99,4112.9487304688,,,
24.8593750000,99,4107.3076171875,,,
24.8671875000,99,4096.2822265625,,,
24.8750000000,99,4090.7692871094,,,
24.8828125000,99,4091.1538085938,,,
24.8906250000,99,4091.4101562500,,,
24.8984375000,99,4090.5129394531,33024,24.8994140625,0.0000000000
24.9062500000,99,4092.3076171875,,,
24.9140625000,99,4096.9228515625,,,
24.9218750000,99,4099.7436523438,,,
24.9296875000,99,4100.0000000000,,,
24.9375000000,99,4102.9487304688,,,
24.9453125000,99,4111.5385742188,,,
24.9531250000,99,4120.6411132813,,,
24.9609375000,99,4127.5639648438,,,
24.9687500000,99,4141.4101562500,,,
24.9765625000,99,4171.7949218750,,,
24.9843750000,99,4206.6665039063,,,
24.9921875000,99,4214.2309570313,,,
25.0000000000,100,4175.5126953125,,,
25.0078125000,100,4113.8461914063,,,
25.0156250000,100,4077.9487304688,,,
25.0234375000,100,4093.0769042969,,,
25.0312500000,100,4133.3334960938,,,
25.0390625000,100,4151.4101562500,,,
25.0468750000,100,4129.8715820313,,,
25.0546875000,100,4095.1281738281,,,
25.0625000000,100,4082.3076171875,,,
25.0703125000,100,4096.1538085938,,,
25.0781250000,100,4112.6923828125,,,
25.0859375000,100,4112.3076171875,,,
25.0937500000,100,4100.3847656250,,,
25.1015625000,100,4093.7180175781,,,
25.1093750000,100,4098.9741210938,,,
25.1171875000,100,4107.8203125000,,,
25.1250000000,100,4110.2563476563,,,
25.1328125000,100,4105.6411132813,,,
25.1406250000,100,4100.1284179688,,,
25.1484375000,100,4098.4614257813,,,
25.1562500000,100,4100.0000000000,,,
25.1640625000,100,4101.5385742188,,,
25.1718750000,100,4101.0258789063,,,
25.1796875000,100,4099.1025390625,,,
25.1875000000,100,4097.6923828125,,,
25.1953125000,100,4098.0771484375,33024,25.1992187500,0.0000000000
25.2031250000,100,4098.9741210938,,,
25.2109375000,100,4098.4614257813,,,
25.2187500000,100,4096.4101562500,,,
25.2265625000,100,4095.2563476563,,,
25.2343750000,100,4096.9228515625,,,
25.2421875000,100,4100.2563476563,,,
25.2500000000,101,4102.0512695313,,,
25.2578125000,101,4100.8974609375,,,
25.2656250000,101,4098.4614257813,,,
25.2734375000,101,4097.3076171875,,,
25.2812500000,101,4097.5639648438,,,
25.2890625000,101,4098.0771484375,,,
25.2968750000,101,4098.3334960938,,,
25.3046875000,101,4099.2309570313,,,
25.3125000000,101,4101.0258789063,,,
25.3203125000,101,4101.6665039063,,,
25.3281250000,101,4099.7436523438,,,
25.3359375000,101,4096.6665039063,,,
25.3437500000,101,4096.1538085938,,,
25.3515625000,101,4099.8715820313,,,
25.3593750000,101,4105.0000000000,,,
25.3671875000,101,4107.5639648438,,,
25.3750000000,101,4106.5385742188,,,
25.3828125000,101,4104.1025390625,,,
25.3906250000,101,4103.0771484375,,,
25.3984375000,101,4103.3334960938,,,
25.4062500000,101,4102.4360351563,,,
25.4140625000,101,4100.2563476563,,,
25.4218750000,101,4099.7436523438,,,
25.4296875000,101,4103.2050781250,,,
25.4375000000,101,4108.4614257813,,,
25.4453125000,101,4110.6411132813,,,
25.4531250000,101,4107.6923828125,,,
25.4609375000,101,4103.2050781250,,,
25.4687500000,101,4102.5639648438,,,
25.4765625000,101,4105.6411132813,,,
25.4843750000,101,4107.6923828125,,,
25.4921875000,101,4106.2822265625,33024,25.4990234375,0.0000000000
25.5000000000,102,4104.6152343750,,,
25.5078125000,102,4108.0771484375,,,
25.5156250000,102,4114.2309570313,,,
25.5234375000,102,4113.4614257813,,,
25.5312500000,102,4099.8715820313,,,
25.5390625000,102,4080.6411132813,,,
25.5468750000,102,4070.8974609375,,,
25.5546875000,102,4078.7180175781,,,
25.5625000000,102,4097.3076171875,,,
25.5703125000,102,4111.1538085938,,,
25.5781250000,102,4111.9228515625,,,
25.5859375000,102,4103.9741210938,,,
25.5937500000,102,4097.3076171875,,,
25.6015625000,102,4097.9487304688,,,
25.6093750000,102,4104.4873046875,,,
25.6171875000,102,4111.6665039063,,,
25.6250000000,102,4115.2563476563,,,
25.6328125000,102,4115.6411132813,,,
25.6406250000,102,4116.6665039063,,,
25.6484375000,102,4121.6665039063,,,
25.6562500000,102,4128.2050781250,,,
25.6640625000,102,4128.2050781250,,,
25.6718750000,102,4115.8974609375,,,
25.6796875000,102,4096.5385742188,,,
25.6875000000,102,4084.1025390625,,,
25.6953125000,102,4087.8205566406,,,
25.7031250000,102,4102.3076171875,,,
25.7109375000,102,4112.6923828125,,,
25.7187500000,102,4111.1538085938,,,
25.7265625000,102,4103.7177734375,,,
25.7343750000,102,4101.0258789063,,,
25.7421875000,102,4105.0000000000,,,
25.7500000000,103,4108.9741210938,,,
25.7578125000,103,4107.4360351563,,,
25.7656250000,103,4104.1025390625,,,
25.7734375000,103,4105.6411132813,,,
25.7812500000,103,4112.0512695313,,,
25.7890625000,103,4116.4101562500,,,
