Time:128Hz,Epoch,AF3,F7,F3,FC5,T7,P7,O1,O2,P8,T8,FC6,F4,F8,AF4,Event Id,Event Date,Event Duration
0.0000000000,0,4072.0512695313,4289.4873046875,4102.5639648438,4039.7436523438,4153.0771484375,4036.7949218750,4102.4360351563,4033.9743652344,4054.7436523438,4103.0771484375,4068.0769042969,4087.0512695313,4066.0256347656,4025.7692871094,,,
0.0078125000,0,4077.3076171875,4286.7949218750,4112.0512695313,4048.8461914063,4153.8461914063,4041.5385742188,4102.0512695313,4041.2819824219,4057.5642089844,4103.0771484375,4074.6154785156,4090.1281738281,4070.2563476563,4028.9743652344,,,
0.0156250000,0,4087.3076171875,4287.6923828125,4125.2563476563,4064.4870605469,4154.2309570313,4052.0512695313,4101.4101562500,4048.9743652344,4062.8205566406,4103.0771484375,4085.1281738281,4098.2050781250,4074.6154785156,4037.1794433594,,,
0.0234375000,0,4095.8974609375,4291.0258789063,4133.3334960938,4074.7436523438,4154.2309570313,4058.4614257813,4101.2822265625,4052.5642089844,4066.9230957031,4103.0771484375,4093.5898437500,4105.5126953125,4073.9743652344,4043.5898437500,,,
0.0312500000,0,4098.4614257813,4294.1025390625,4131.1538085938,4072.4357910156,4153.7177734375,4054.4870605469,4101.9228515625,4050.2563476563,4066.4101562500,4103.0771484375,4093.5898437500,4107.1796875000,4067.0512695313,4042.6923828125,,,
0.0390625000,0,4095.2563476563,4295.3847656250,4121.0258789063,4060.0000000000,4153.0771484375,4043.4614257813,4102.6923828125,4044.6154785156,4061.2819824219,4103.0771484375,4084.4870605469,4102.3076171875,4057.6923828125,4035.0000000000,,,
0.0468750000,0,4090.0000000000,4295.5126953125,4109.8715820313,4046.5385742188,4152.6923828125,4034.3588867188,4102.9487304688,4039.6154785156,4055.1281738281,4103.0771484375,4072.4357910156,4095.5129394531,4052.8205566406,4026.7949218750,,,
0.0546875000,0,4087.1794433594,4295.6411132813,4104.6152343750,4040.6411132813,4152.5639648438,4034.3588867188,4102.6923828125,4038.2050781250,4051.4101562500,4103.0771484375,4066.7949218750,4092.1794433594,4056.6667480469,4024.6154785156,,,
0.0625000000,0,4088.0769042969,4296.7949218750,4107.5639648438,4045.3845214844,4152.9487304688,4042.6923828125,4102.4360351563,4040.0000000000,4051.6667480469,4103.0771484375,4073.4614257813,4094.7436523438,4066.6667480469,4030.6411132813,,,
0.0703125000,0,4091.6667480469,4299.4873046875,4116.7949218750,4058.0769042969,4153.3334960938,4052.9487304688,4102.8203125000,4043.0769042969,4055.0000000000,4103.0771484375,4089.6154785156,4102.0512695313,4076.0256347656,4041.1538085938,,,
0.0781250000,0,4095.5129394531,4303.8461914063,4128.3334960938,4072.3076171875,4153.5898437500,4058.8461914063,4103.9741210938,4046.2819824219,4060.1281738281,4103.0771484375,4105.8974609375,4110.5126953125,4080.1281738281,4049.7436523438,,,
0.0859375000,0,4097.9487304688,4308.3334960938,4137.9487304688,4081.6667480469,4153.7177734375,4059.1025390625,4105.2563476563,4049.8718261719,4065.8974609375,4103.0771484375,4112.0512695313,4115.2563476563,4078.9743652344,4051.7949218750,,,
0.0937500000,0,4098.0771484375,4310.3847656250,4142.8203125000,4083.4614257813,4153.8461914063,4057.5642089844,4105.7690429688,4053.2050781250,4070.8974609375,4103.0771484375,4104.7436523438,4114.1025390625,4075.5129394531,4046.9230957031,,,
0.1015625000,0,4095.8974609375,4307.5639648438,4142.0512695313,4078.9743652344,4154.1025390625,4057.9487304688,4105.3847656250,4054.8718261719,4073.5898437500,4103.0771484375,4089.3588867188,4108.4614257813,4071.4101562500,4038.7180175781,,,
0.1093750000,0,4092.6923828125,4299.4873046875,4136.5385742188,4071.4101562500,4154.4873046875,4060.5129394531,4104.6152343750,4054.2307128906,4072.8205566406,4103.0771484375,4076.0256347656,4102.4360351563,4066.7949218750,4032.3076171875,,,
0.1171875000,0,4090.1281738281,4289.1025390625,4128.7177734375,4063.0769042969,4154.6152343750,4061.6667480469,4104.1025390625,4051.9230957031,4068.4614257813,4103.0771484375,4071.9230957031,4098.9741210938,4061.7949218750,4030.7692871094,,,
0.1250000000,0,4089.3588867188,4280.8974609375,4121.2822265625,4055.3845214844,4154.4873046875,4058.7180175781,4104.3588867188,4049.6154785156,4062.0512695313,4103.0771484375,4076.1538085938,4098.3334960938,4058.5898437500,4033.9743652344,,,
0.1328125000,0,4090.0000000000,4279.2309570313,4117.1796875000,4050.8974609375,4154.1025390625,4052.4357910156,4105.1284179688,4048.7180175781,4056.4101562500,4103.0771484375,4082.4357910156,4098.8461914063,4059.3588867188,4039.7436523438,,,
0.1406250000,0,4091.0256347656,4285.7690429688,4117.5639648438,4052.8205566406,4153.7177734375,4046.7949218750,4105.1284179688,4049.2307128906,4054.3588867188,4103.0771484375,4084.7436523438,4099.3588867188,4063.4614257813,4045.2563476563,,,
0.1484375000,0,4092.0512695313,4298.0771484375,4120.8974609375,4061.9230957031,4153.5898437500,4045.2563476563,4103.9741210938,4050.1281738281,4056.6667480469,4103.0771484375,4082.1794433594,4100.3847656250,4067.1794433594,4047.9487304688,,,
0.1562500000,0,4092.6923828125,4310.1284179688,4124.3588867188,4073.4614257813,4153.5898437500,4047.9487304688,4102.3076171875,4050.6411132813,4061.0256347656,4103.0771484375,4078.2050781250,4101.9228515625,4066.7949218750,4046.9230957031,,,
0.1640625000,0,4093.0769042969,4315.6411132813,4124.8715820313,4080.6411132813,4153.5898437500,4053.0769042969,4101.2822265625,4051.1538085938,4064.6154785156,4103.0771484375,4077.8205566406,4103.3334960938,4062.8205566406,4042.6923828125,,,
0.1718750000,0,4093.3332519531,4312.1796875000,4122.5639648438,4080.3845214844,4153.4614257813,4059.6154785156,4101.5385742188,4053.2050781250,4066.0256347656,4103.0771484375,4083.0769042969,4103.9741210938,4059.1025390625,4038.2050781250,,,
0.1796875000,0,4094.2307128906,4302.8203125000,4119.4873046875,4074.7436523438,4153.3334960938,4067.3076171875,4102.1796875000,4057.1794433594,4066.1538085938,4103.0771484375,4092.1794433594,4104.1025390625,4059.8718261719,4036.4101562500,,,
0.1875000000,0,4095.8974609375,4293.9741210938,4118.3334960938,4068.8461914063,4153.4614257813,4075.1281738281,4101.7949218750,4062.1794433594,4067.0512695313,4103.0771484375,4100.1284179688,4104.8715820313,4065.5129394531,4038.0769042969,,,
0.1953125000,0,4098.4614257813,4290.6411132813,4119.4873046875,4065.8974609375,4153.4614257813,4080.5129394531,4099.7436523438,4066.0256347656,4069.4870605469,4103.0771484375,4102.3076171875,4105.8974609375,4072.9487304688,4041.0256347656,,,
0.2031250000,0,4101.1538085938,4292.5639648438,4121.7949218750,4065.5129394531,4153.5898437500,4079.3588867188,4097.1796875000,4067.6923828125,4073.0769042969,4103.0771484375,4097.0512695313,4106.1538085938,4076.9230957031,4042.0512695313,,,
0.2109375000,0,4103.2050781250,4296.1538085938,4123.0771484375,4065.5129394531,4153.7177734375,4070.2563476563,4096.4101562500,4067.1794433594,4076.1538085938,4103.0771484375,4086.2819824219,4103.8461914063,4074.1025390625,4040.3845214844,,,
0.2187500000,0,4103.7177734375,4297.4360351563,4121.1538085938,4064.6154785156,4153.9741210938,4056.4101562500,4098.4614257813,4065.7692871094,4078.0769042969,4103.0771484375,4075.8974609375,4099.3588867188,4065.6411132813,4037.9487304688,,,
0.2265625000,0,4101.6665039063,4295.5126953125,4115.7690429688,4063.4614257813,4154.1025390625,4044.4870605469,4101.5385742188,4063.8461914063,4078.4614257813,4103.0771484375,4071.4101562500,4094.8718261719,4056.4101562500,4036.9230957031,,,
0.2343750000,0,4096.7949218750,4292.0512695313,4107.5639648438,4063.9743652344,4153.9741210938,4039.8718261719,4103.3334960938,4060.7692871094,4077.0512695313,4103.0771484375,4075.1281738281,4092.6923828125,4052.4357910156,4037.8205566406,,,
0.2421875000,0,4090.1281738281,4289.4873046875,4098.2050781250,4066.9230957031,4153.8461914063,4042.0512695313,4102.4360351563,4054.8718261719,4072.0512695313,4103.0771484375,4083.8461914063,4093.3332519531,4056.0256347656,4038.9743652344,,,
0.2500000000,1,4083.8461914063,4289.8715820313,4090.2563476563,4070.6411132813,4153.8461914063,4046.2819824219,4099.8715820313,4046.0256347656,4062.6923828125,4103.0771484375,4092.0512695313,4096.0258789063,4064.6154785156,4038.4614257813,,,
0.2578125000,1,4080.0000000000,4293.4614257813,4085.5129394531,4072.9487304688,4154.1025390625,4047.4357910156,4097.5639648438,4036.7949218750,4051.6667480469,4103.0771484375,4095.8974609375,4099.6152343750,4072.0512695313,4036.4101562500,,,
0.2656250000,1,4080.1281738281,4298.0771484375,4084.6154785156,4073.3332519531,4153.8461914063,4044.8718261719,4097.0512695313,4031.6667480469,4044.3588867188,4103.0771484375,4095.0000000000,4103.5898437500,4073.3332519531,4034.6154785156,,,
0.2734375000,1,4084.2307128906,4300.0000000000,4087.1794433594,4073.9743652344,4153.3334960938,4041.9230957031,4098.4614257813,4033.0769042969,4044.8718261719,4103.0771484375,4091.6667480469,4106.9228515625,4068.0769042969,4035.2563476563,,,
0.2812500000,1,4091.1538085938,4296.4101562500,4092.3076171875,4077.9487304688,4152.6923828125,4042.5642089844,4100.8974609375,4039.7436523438,4052.1794433594,4103.0771484375,4088.4614257813,4109.2309570313,4060.2563476563,4039.3588867188,,,
0.2890625000,1,4098.3334960938,4289.1025390625,4098.7177734375,4085.5129394531,4152.8203125000,4047.4357910156,4102.8203125000,4047.4357910156,4060.0000000000,4103.0771484375,4085.8974609375,4110.1284179688,4055.3845214844,4045.8974609375,,,
0.2968750000,1,4103.2050781250,4283.5898437500,4104.3588867188,4092.4357910156,4153.4614257813,4052.8205566406,4103.2050781250,4051.6667480469,4062.1794433594,4103.0771484375,4083.0769042969,4109.8715820313,4056.9230957031,4051.9230957031,,,
0.3046875000,1,4105.7690429688,4286.0258789063,4107.1796875000,4093.0769042969,4154.2309570313,4053.8461914063,4101.9228515625,4051.2819824219,4058.0769042969,4103.0771484375,4080.3845214844,4109.4873046875,4065.1281738281,4055.5129394531,,,
0.3125000000,1,4107.1796875000,4297.0512695313,4106.9228515625,4083.5898437500,4154.3588867188,4050.6411132813,4100.0000000000,4048.7180175781,4052.5642089844,4103.0771484375,4079.6154785156,4110.0000000000,4076.4101562500,4057.4357910156,,,
0.3203125000,1,4108.3334960938,4308.8461914063,4104.8715820313,4067.3076171875,4153.7177734375,4048.7180175781,4098.5898437500,4047.8205566406,4051.5385742188,4103.0771484375,4082.1794433594,4112.1796875000,4084.8718261719,4059.4870605469,,,
0.3281250000,1,4108.8461914063,4310.3847656250,4104.3588867188,4053.4614257813,4152.8203125000,4053.3332519531,4098.5898437500,4050.8974609375,4056.5385742188,4103.0771484375,4086.2819824219,4115.8974609375,4084.7436523438,4062.3076171875,,,
0.3359375000,1,4107.8203125000,4296.9228515625,4107.6923828125,4052.0512695313,4152.4360351563,4064.2307128906,4100.1284179688,4057.5642089844,4065.2563476563,4103.0771484375,4089.4870605469,4120.1284179688,4075.7692871094,4063.9743652344,,,
0.3437500000,1,4105.7690429688,4276.2822265625,4115.2563476563,4064.7436523438,4152.8203125000,4075.1281738281,4102.1796875000,4066.1538085938,4074.4870605469,4103.0771484375,4091.4101562500,4124.1025390625,4065.0000000000,4063.2050781250,,,
0.3515625000,1,4104.8715820313,4265.0000000000,4124.2309570313,4083.7180175781,4153.4614257813,4079.8718261719,4103.0771484375,4074.6154785156,4082.6923828125,4103.0771484375,4094.1025390625,4127.0512695313,4062.1794433594,4060.8974609375,,,
0.3593750000,1,4107.1796875000,4273.5898437500,4130.6411132813,4097.6923828125,4153.5898437500,4077.1794433594,4102.0512695313,4080.3845214844,4088.9743652344,4103.0771484375,4099.1025390625,4129.2309570313,4070.5129394531,4059.8718261719,,,
0.3671875000,1,4113.0771484375,4297.4360351563,4131.6665039063,4101.7949218750,4153.0771484375,4071.1538085938,4099.8715820313,4081.7949218750,4091.6667480469,4103.0771484375,4103.7177734375,4130.1284179688,4082.4357910156,4061.4101562500,,,
0.3750000000,1,4119.3588867188,4319.6152343750,4127.3076171875,4099.3588867188,4152.0512695313,4066.2819824219,4098.2050781250,4077.5642089844,4088.5898437500,4103.0771484375,4103.0771484375,4128.4614257813,4085.5129394531,4063.3332519531,,,
0.3828125000,1,4121.2822265625,4325.7690429688,4119.1025390625,4096.2822265625,4151.0258789063,4063.7180175781,4097.9487304688,4067.9487304688,4078.5898437500,4103.0771484375,4094.3588867188,4122.8203125000,4073.3332519531,4060.7692871094,,,
0.3906250000,1,4115.6411132813,4313.9741210938,4108.7177734375,4092.5642089844,4150.5126953125,4060.8974609375,4098.4614257813,4055.5129394531,4063.7180175781,4103.0771484375,4079.3588867188,4113.0771484375,4050.6411132813,4051.0256347656,,,
0.3984375000,1,4104.6152343750,4295.1284179688,4098.5898437500,4084.1025390625,4150.8974609375,4055.6411132813,4098.3334960938,4044.3588867188,4049.1025390625,4103.0771484375,4063.0769042969,4101.1538085938,4028.5898437500,4035.8974609375,,,
0.4062500000,1,4093.4614257813,4283.2050781250,4090.3845214844,4070.3845214844,4151.7949218750,4047.3076171875,4096.6665039063,4038.0769042969,4040.8974609375,4103.0771484375,4050.5129394531,4089.8718261719,4016.0256347656,4020.3845214844,,,
0.4140625000,1,4087.5642089844,4284.6152343750,4085.5129394531,4058.0769042969,4152.4360351563,4038.4614257813,4093.9743652344,4037.6923828125,4041.4101562500,4103.0771484375,4043.5898437500,4081.9230957031,4012.8205566406,4009.7436523438,,,
0.4218750000,1,4088.0769042969,4294.4873046875,4083.4614257813,4056.0256347656,4152.3076171875,4032.8205566406,4091.6667480469,4040.8974609375,4047.9487304688,4102.9487304688,4041.5385742188,4078.4614257813,4013.2050781250,4005.2563476563,,,
0.4296875000,1,4092.0512695313,4302.4360351563,4083.0769042969,4066.1538085938,4151.2822265625,4032.8205566406,4091.5385742188,4044.1025390625,4053.9743652344,4102.9487304688,4041.9230957031,4078.5898437500,4010.8974609375,4004.7436523438,,,
0.4375000000,1,4094.7436523438,4301.9228515625,4082.9487304688,4081.4101562500,4150.3847656250,4038.8461914063,4094.4870605469,4044.4870605469,4055.0000000000,4102.9487304688,4042.1794433594,4080.2563476563,4003.7180175781,4003.9743652344,,,
0.4453125000,1,4093.7180175781,4295.5126953125,4081.1538085938,4091.4101562500,4150.3847656250,4048.0769042969,4099.4873046875,4041.6667480469,4051.5385742188,4103.0771484375,4041.2819824219,4081.9230957031,3994.4870605469,4000.5129394531,,,
0.4531250000,1,4090.3845214844,4290.2563476563,4077.5642089844,4090.3845214844,4151.4101562500,4056.4101562500,4103.4614257813,4037.6923828125,4048.0769042969,4103.0771484375,4039.4870605469,4083.3332519531,3988.8461914063,3994.2307128906,,,
0.4609375000,1,4087.8205566406,4290.7690429688,4073.8461914063,4082.0512695313,4152.6923828125,4060.5129394531,4104.1025390625,4035.5129394531,4047.9487304688,4103.0771484375,4038.2050781250,4085.8974609375,3990.5129394531,3988.5898437500,,,
0.4687500000,1,4087.8205566406,4295.8974609375,4072.5642089844,4075.0000000000,4152.9487304688,4060.8974609375,4101.2822265625,4035.7692871094,4050.0000000000,4102.9487304688,4037.8205566406,4089.4870605469,3998.0769042969,3987.4357910156,,,
0.4765625000,1,4089.3588867188,4300.2563476563,4074.7436523438,4075.3845214844,4151.5385742188,4059.8718261719,4097.5639648438,4037.1794433594,4050.5129394531,4102.9487304688,4037.5642089844,4092.9487304688,4005.5129394531,3992.3076171875,,,
0.4843750000,1,4090.2563476563,4300.3847656250,4078.8461914063,4082.4357910156,4149.4873046875,4059.7436523438,4095.8974609375,4037.9487304688,4048.0769042969,4103.0771484375,4036.1538085938,4094.2307128906,4006.9230957031,4000.3845214844,,,
0.4921875000,1,4090.0000000000,4297.4360351563,4082.1794433594,4089.2307128906,4149.1025390625,4061.0256347656,4097.3076171875,4037.5642089844,4045.0000000000,4103.4614257813,4033.9743652344,4092.4357910156,4001.9230957031,4007.1794433594,,,
0.5000000000,2,4089.3588867188,4295.0000000000,4082.5642089844,4089.8718261719,4151.5385742188,4062.5642089844,4100.2563476563,4037.3076171875,4045.5129394531,4104.2309570313,4032.1794433594,4088.2050781250,3995.1281738281,4008.9743652344,,,
0.5078125000,2,4089.3588867188,4293.7177734375,4080.1281738281,4084.3588867188,4154.3588867188,4062.6923828125,4101.7949218750,4038.0769042969,4050.5129394531,4105.0000000000,4032.5642089844,4083.2050781250,3991.1538085938,4005.1281738281,,,
0.5156250000,2,4090.0000000000,4291.2822265625,4076.6667480469,4078.5898437500,4154.2309570313,4060.5129394531,4100.3847656250,4040.5129394531,4057.5642089844,4105.2563476563,4036.0256347656,4079.1025390625,3991.7949218750,3997.9487304688,,,
0.5234375000,2,4090.8974609375,4285.7690429688,4075.0000000000,4077.1794433594,4149.6152343750,4056.4101562500,4097.0512695313,4043.8461914063,4062.8205566406,4104.8715820313,4041.9230957031,4077.1794433594,3994.7436523438,3991.5385742188,,,
0.5312500000,2,4091.7949218750,4279.4873046875,4075.5129394531,4078.7180175781,4142.8203125000,4051.2819824219,4094.6154785156,4046.4101562500,4064.3588867188,4104.2309570313,4047.1794433594,4077.3076171875,3996.6667480469,3988.9743652344,,,
0.5390625000,2,4092.4357910156,4277.1796875000,4075.8974609375,4077.6923828125,4138.3334960938,4047.1794433594,4094.7436523438,4046.7949218750,4062.6923828125,4104.1025390625,4047.3076171875,4077.8205566406,3995.0000000000,3989.7436523438,,,
0.5468750000,2,4092.0512695313,4280.3847656250,4074.6154785156,4070.6411132813,4138.8461914063,4046.5385742188,4096.5385742188,4046.1538085938,4060.3845214844,4104.7436523438,4040.3845214844,4076.9230957031,3989.8718261719,3991.0256347656,,,
0.5546875000,2,4090.8974609375,4285.3847656250,4072.5642089844,4060.5129394531,4142.9487304688,4050.7692871094,4097.9487304688,4046.9230957031,4059.6154785156,4105.5126953125,4030.3845214844,4074.3588867188,3984.3588867188,3990.0000000000,,,
0.5625000000,2,4089.7436523438,4287.8203125000,4072.8205566406,4054.4870605469,4146.6665039063,4058.9743652344,4097.5639648438,4050.7692871094,4060.7692871094,4105.5126953125,4024.3588867188,4071.5385742188,3983.2050781250,3986.7949218750,,,
0.5703125000,2,4090.2563476563,4286.5385742188,4077.3076171875,4058.2050781250,4146.6665039063,4068.7180175781,4096.1538085938,4056.9230957031,4061.9230957031,4104.2309570313,4027.3076171875,4070.7692871094,3989.1025390625,3983.8461914063,,,
0.5781250000,2,4092.3076171875,4283.8461914063,4084.7436523438,4072.3076171875,4142.6923828125,4076.0256347656,4095.2563476563,4062.3076171875,4061.9230957031,4101.7949218750,4036.2819824219,4072.5642089844,3998.9743652344,3983.3332519531,,,
0.5859375000,2,4094.2307128906,4281.5385742188,4091.5385742188,4091.6667480469,4137.8203125000,4076.2819824219,4095.6411132813,4063.8461914063,4061.0256347656,4099.3588867188,4043.0769042969,4075.2563476563,4005.5129394531,3985.2563476563,,,
0.5937500000,2,4093.4614257813,4279.4873046875,4093.4614257813,4106.0258789063,4135.0000000000,4067.8205566406,4097.5639648438,4060.3845214844,4060.7692871094,4097.6923828125,4041.2819824219,4076.1538085938,4003.4614257813,3987.1794433594,,,
0.6015625000,2,4089.1025390625,4276.4101562500,4088.7180175781,4104.4873046875,4135.6411132813,4053.3332519531,4099.8715820313,4052.8205566406,4061.7949218750,4097.4360351563,4033.7180175781,4073.4614257813,3994.4870605469,3987.1794433594,,,
0.6093750000,2,4082.8205566406,4272.8203125000,4079.6154785156,4083.8461914063,4138.0771484375,4040.3845214844,4101.4101562500,4044.4870605469,4063.2050781250,4098.2050781250,4028.8461914063,4068.7180175781,3986.9230957031,3985.0000000000,,,
0.6171875000,2,4078.4614257813,4271.1538085938,4071.9230957031,4054.2307128906,4139.7436523438,4035.8974609375,4102.0512695313,4038.9743652344,4063.7180175781,4099.3588867188,4032.9487304688,4065.5129394531,3987.4357910156,3982.9487304688,,,
0.6250000000,2,4078.8461914063,4273.3334960938,4070.7692871094,4036.2819824219,4139.3588867188,4041.5385742188,4101.7949218750,4038.9743652344,4063.2050781250,4100.0000000000,4044.1025390625,4066.9230957031,3996.0256347656,3983.7180175781,,,
0.6328125000,2,4084.2307128906,4279.4873046875,4077.3076171875,4045.5129394531,4137.6923828125,4052.8205566406,4100.7690429688,4044.7436523438,4063.3332519531,4100.1284179688,4054.3588867188,4073.0769042969,4006.6667480469,3988.4614257813,,,
0.6406250000,2,4091.7949218750,4287.1796875000,4087.8205566406,4079.3588867188,4136.2822265625,4063.8461914063,4099.3588867188,4054.1025390625,4066.5385742188,4099.6152343750,4057.1794433594,4080.8974609375,4014.4870605469,3995.3845214844,,,
0.6484375000,2,4097.5639648438,4293.9741210938,4096.0258789063,4115.5126953125,4136.4101562500,4070.8974609375,4097.9487304688,4063.5898437500,4073.3332519531,4099.1025390625,4053.0769042969,4087.3076171875,4018.7180175781,4001.7949218750,,,
0.6562500000,2,4099.2309570313,4297.4360351563,4097.0512695313,4127.3076171875,4137.1796875000,4073.8461914063,4097.5639648438,4068.7180175781,4080.7692871094,4098.8461914063,4047.3076171875,4089.7436523438,4021.2819824219,4005.6411132813,,,
0.6640625000,2,4096.6665039063,4295.7690429688,4090.5129394531,4103.9741210938,4137.5639648438,4072.9487304688,4097.9487304688,4066.4101562500,4083.0769042969,4098.8461914063,4045.8974609375,4087.9487304688,4022.8205566406,4006.4101562500,,,
0.6718750000,2,4092.3076171875,4288.0771484375,4080.5129394531,4060.6411132813,4136.6665039063,4067.9487304688,4097.8203125000,4055.5129394531,4075.7692871094,4099.1025390625,4050.2563476563,4082.6923828125,4022.3076171875,4004.7436523438,,,
0.6796875000,2,4088.7180175781,4276.9228515625,4073.0769042969,4027.9487304688,4135.5126953125,4058.0769042969,4096.6665039063,4038.7180175781,4059.4870605469,4098.9741210938,4056.9230957031,4076.9230957031,4019.3588867188,4002.6923828125,,,
0.6875000000,2,4088.2050781250,4267.5639648438,4071.9230957031,4028.5898437500,4135.2563476563,4045.7692871094,4095.1281738281,4022.0512695313,4041.2819824219,4098.7177734375,4060.5129394531,4073.4614257813,4015.2563476563,4002.4357910156,,,
0.6953125000,2,4090.6411132813,4264.8715820313,4075.8974609375,4060.2563476563,4136.0258789063,4036.4101562500,4094.6154785156,4011.6667480469,4030.1281738281,4098.2050781250,4058.7180175781,4073.8461914063,4012.3076171875,4004.4870605469,,,
0.7031250000,2,4093.8461914063,4270.3847656250,4080.3845214844,4098.3334960938,4136.7949218750,4035.3845214844,4095.7692871094,4011.0256347656,4030.7692871094,4098.2050781250,4053.8461914063,4077.5642089844,4012.1794433594,4007.1794433594,,,
0.7109375000,2,4095.2563476563,4282.4360351563,4081.4101562500,4115.3847656250,4136.6665039063,4042.8205566406,4097.3076171875,4018.8461914063,4041.1538085938,4098.8461914063,4051.2819824219,4082.6923828125,4014.3588867188,4007.6923828125,,,
0.7187500000,2,4094.4870605469,4296.1538085938,4078.9743652344,4103.2050781250,4135.3847656250,4053.7180175781,4098.3334960938,4029.7436523438,4053.7180175781,4100.6411132813,4055.8974609375,4087.8205566406,4017.4357910156,4005.6411132813,,,
0.7265625000,2,4093.3332519531,4306.1538085938,4076.5385742188,4077.8205566406,4133.7177734375,4062.4357910156,4098.2050781250,4037.9487304688,4061.1538085938,4102.8203125000,4067.8205566406,4091.6667480469,4020.1281738281,4003.4614257813,,,
0.7343750000,2,4093.5898437500,4308.0771484375,4078.3332519531,4063.7180175781,4132.6923828125,4065.7692871094,4097.3076171875,4041.0256347656,4060.8974609375,4104.4873046875,4081.5385742188,4093.8461914063,4023.0769042969,4004.2307128906,,,
0.7421875000,2,4096.0258789063,4300.5126953125,4084.7436523438,4072.4357910156,4132.6923828125,4064.1025390625,4096.5385742188,4039.2307128906,4056.0256347656,4105.0000000000,4090.0000000000,4094.6154785156,4028.2050781250,4008.9743652344,,,
0.7500000000,3,4099.4873046875,4287.9487304688,4091.9230957031,4092.9487304688,4133.5898437500,4059.8718261719,4096.7949218750,4034.2307128906,4051.7949218750,4104.6152343750,4088.8461914063,4094.4870605469,4035.8974609375,4015.1281738281,,,
0.7578125000,3,4101.2822265625,4278.9741210938,4094.1025390625,4103.2050781250,4134.8715820313,4056.1538085938,4097.9487304688,4028.9743652344,4051.2819824219,4103.9741210938,4079.8718261719,4094.2307128906,4043.5898437500,4019.3588867188,,,
0.7656250000,3,4099.8715820313,4280.6411132813,4089.2307128906,4092.4357910156,4135.5126953125,4055.7692871094,4099.1025390625,4026.6667480469,4052.9487304688,4103.7177734375,4069.3588867188,4093.9743652344,4047.1794433594,4020.1281738281,,,
0.7734375000,3,4096.5385742188,4291.9228515625,4081.2819824219,4070.2563476563,4134.8715820313,4058.9743652344,4099.4873046875,4028.4614257813,4053.7180175781,4103.9741210938,4063.7180175781,4093.9743652344,4044.6154785156,4018.4614257813,,,
0.7812500000,3,4094.4870605469,4303.5898437500,4076.6667480469,4056.4101562500,4133.7177734375,4063.8461914063,4099.1025390625,4033.4614257813,4051.5385742188,4104.2309570313,4065.5129394531,4093.5898437500,4038.7180175781,4017.5642089844,,,
0.7890625000,3,4096.4101562500,4305.8974609375,4079.2307128906,4062.0512695313,4132.6923828125,4067.5642089844,4098.7177734375,4038.8461914063,4048.2050781250,4104.1025390625,4072.5642089844,4092.8205566406,4034.8718261719,4019.7436523438,,,
0.7968750000,3,4101.7949218750,4296.6665039063,4086.7949218750,4081.4101562500,4132.3076171875,4068.3332519531,4098.9741210938,4041.6667480469,4046.7949218750,4103.5898437500,4079.8718261719,4091.7949218750,4036.5385742188,4025.0000000000,,,
0.8046875000,3,4107.3076171875,4283.2050781250,4093.7180175781,4099.4873046875,4132.8203125000,4065.5129394531,4100.0000000000,4040.8974609375,4049.1025390625,4103.0771484375,4082.3076171875,4091.5385742188,4041.7949218750,4030.5129394531,,,
0.8125000000,3,4109.8715820313,4276.2822265625,4095.8974609375,4106.5385742188,4134.2309570313,4060.1281738281,4101.4101562500,4038.0769042969,4054.1025390625,4102.6923828125,4079.2307128906,4093.0769042969,4045.6411132813,4033.3332519531,,,
0.8203125000,3,4108.8461914063,4281.9228515625,4093.2050781250,4105.2563476563,4135.7690429688,4054.8718261719,4102.0512695313,4037.0512695313,4059.7436523438,4102.8203125000,4074.4870605469,4096.2822265625,4045.2563476563,4033.0769042969,,,
0.8281250000,3,4105.0000000000,4296.6665039063,4088.0769042969,4103.7177734375,4136.5385742188,4052.9487304688,4101.4101562500,4039.6154785156,4064.2307128906,4103.2050781250,4073.0769042969,4099.4873046875,4043.0769042969,4030.8974609375,,,
0.8359375000,3,4099.7436523438,4310.7690429688,4083.0769042969,4105.2563476563,4136.2822265625,4055.6411132813,4100.2563476563,4044.2307128906,4066.0256347656,4103.4614257813,4076.1538085938,4100.6411132813,4042.6923828125,4028.3332519531,,,
0.8437500000,3,4093.8461914063,4314.2309570313,4078.7180175781,4103.4614257813,4134.7436523438,4060.2563476563,4099.7436523438,4046.5385742188,4064.3588867188,4103.4614257813,4079.8718261719,4097.8203125000,4045.0000000000,4025.2563476563,,,
0.8515625000,3,4088.2050781250,4303.5898437500,4074.2307128906,4091.0256347656,4132.5639648438,4061.9230957031,4100.2563476563,4043.8461914063,4059.6154785156,4103.0771484375,4078.9743652344,4091.2819824219,4046.6667480469,4020.1281738281,,,
0.8593750000,3,4083.3332519531,4284.6152343750,4069.7436523438,4068.9743652344,4130.6411132813,4058.3332519531,4100.6411132813,4037.8205566406,4054.8718261719,4102.6923828125,4072.5642089844,4083.2050781250,4044.6154785156,4012.8205566406,,,
0.8671875000,3,4080.7692871094,4268.4614257813,4067.3076171875,4048.8461914063,4130.0000000000,4053.0769042969,4100.2563476563,4033.3332519531,4053.9743652344,4102.5639648438,4065.0000000000,4078.2050781250,4039.1025390625,4005.8974609375,,,
0.8750000000,3,4082.0512695313,4265.2563476563,4068.9743652344,4044.4870605469,4131.4101562500,4053.0769042969,4099.7436523438,4035.5129394531,4059.3588867188,4102.8203125000,4062.0512695313,4079.8718261719,4034.7436523438,4003.8461914063,,,
0.8828125000,3,4087.1794433594,4276.1538085938,4074.6154785156,4060.0000000000,4134.1025390625,4061.0256347656,4100.0000000000,4044.2307128906,4068.4614257813,4103.4614257813,4065.2563476563,4087.6923828125,4035.7692871094,4008.4614257813,,,
0.8906250000,3,4093.0769042969,4293.3334960938,4080.5129394531,4085.1281738281,4136.7949218750,4071.5385742188,4100.6411132813,4053.2050781250,4075.5129394531,4103.9741210938,4071.1538085938,4096.1538085938,4042.1794433594,4016.4101562500,,,
0.8984375000,3,4095.8974609375,4306.4101562500,4082.4357910156,4101.5385742188,4137.8203125000,4076.0256347656,4100.7690429688,4054.7436523438,4075.0000000000,4103.2050781250,4074.2307128906,4099.2309570313,4048.8461914063,4021.2819824219,,,
0.9062500000,3,4093.9743652344,4310.5126953125,4077.9487304688,4098.9741210938,4137.0512695313,4069.8718261719,4100.2563476563,4046.1538085938,4065.7692871094,4101.1538085938,4071.5385742188,4094.2307128906,4048.8461914063,4018.5898437500,,,
0.9140625000,3,4088.4614257813,4309.1025390625,4069.3588867188,4082.9487304688,4135.7690429688,4055.6411132813,4100.2563476563,4031.7949218750,4051.7949218750,4098.7177734375,4063.3332519531,4084.1025390625,4039.4870605469,4009.2307128906,,,
0.9218750000,3,4083.7180175781,4308.5898437500,4061.9230957031,4069.4870605469,4135.1284179688,4041.1538085938,4101.2822265625,4019.7436523438,4039.7436523438,4097.1796875000,4052.9487304688,4075.2563476563,4025.5129394531,3998.9743652344,,,
0.9296875000,3,4083.4614257813,4312.0512695313,4060.8974609375,4068.5898437500,4135.6411132813,4034.2307128906,4102.5639648438,4016.2819824219,4035.3845214844,4097.4360351563,4046.1538085938,4073.0769042969,4016.4101562500,3995.3845214844,,,
0.9375000000,3,4088.2050781250,4317.1796875000,4067.1794433594,4076.6667480469,4136.6665039063,4038.8461914063,4102.6923828125,4022.3076171875,4040.0000000000,4099.3588867188,4047.5642089844,4078.7180175781,4018.9743652344,4001.7949218750,,,
0.9453125000,3,4094.8718261719,4320.2563476563,4076.2819824219,4083.2050781250,4137.1796875000,4053.8461914063,4100.7690429688,4034.3588867188,4050.2563476563,4101.9228515625,4057.3076171875,4088.4614257813,4032.3076171875,4014.6154785156,,,
0.9531250000,3,4099.4873046875,4320.1284179688,4081.7949218750,4081.7949218750,4136.6665039063,4072.5642089844,4097.6923828125,4046.9230957031,4060.5129394531,4103.8461914063,4069.6154785156,4097.1796875000,4047.0512695313,4025.2563476563,,,
0.9609375000,3,4100.1284179688,4316.7949218750,4080.0000000000,4074.3588867188,4135.8974609375,4085.1281738281,4095.6411132813,4054.4870605469,4066.4101562500,4104.4873046875,4075.8974609375,4101.2822265625,4053.3332519531,4025.8974609375,,,
0.9687500000,3,4098.3334960938,4311.6665039063,4071.6667480469,4066.0256347656,4135.5126953125,4084.1025390625,4096.4101562500,4053.9743652344,4066.2819824219,4104.1025390625,4071.6667480469,4100.7690429688,4047.4357910156,4016.4101562500,,,
0.9765625000,3,4096.5385742188,4306.5385742188,4061.9230957031,4060.2563476563,4135.7690429688,4071.0256347656,4099.4873046875,4047.4357910156,4062.1794433594,4103.7177734375,4060.3845214844,4098.2050781250,4035.3845214844,4004.8718261719,,,
0.9843750000,3,4097.3076171875,4304.2309570313,4057.3076171875,4059.7436523438,4136.1538085938,4055.8974609375,4102.6923828125,4040.3845214844,4057.9487304688,4103.7177734375,4051.1538085938,4097.3076171875,4028.5898437500,4001.7949218750,,,
0.9921875000,3,4101.9228515625,4306.4101562500,4061.4101562500,4068.5898437500,4136.1538085938,4050.5129394531,4103.4614257813,4039.3588867188,4058.4614257813,4103.9741210938,4052.1794433594,4100.5126953125,4035.0000000000,4012.6923828125,,,
1.0000000000,4,4110.0000000000,4312.5639648438,4072.6923828125,4087.8205566406,4135.8974609375,4058.9743652344,4101.2822265625,4047.0512695313,4066.4101562500,4103.9741210938,4064.3588867188,4107.8203125000,4052.1794433594,4032.9487304688,,,
1.0078125000,4,4118.3334960938,4318.9741210938,4083.3332519531,4110.0000000000,4135.7690429688,4074.4870605469,4097.6923828125,4059.3588867188,4078.9743652344,4103.5898437500,4080.6411132813,4115.6411132813,4068.5898437500,4050.8974609375,,,
1.0156250000,4,4121.1538085938,4321.4101562500,4083.5898437500,4121.0258789063,4135.7690429688,4084.1025390625,4095.0000000000,4067.1794433594,4087.9487304688,4103.0771484375,4089.4870605469,4118.0771484375,4071.1538085938,4055.1281738281,,,
1.0234375000,4,4113.0771484375,4316.2822265625,4068.2050781250,4108.9741210938,4135.8974609375,4077.4357910156,4094.4870605469,4061.6667480469,4082.8205566406,4102.6923828125,4082.4357910156,4110.1284179688,4054.4870605469,4041.7949218750,,,
1.0312500000,4,4093.8461914063,4302.1796875000,4040.7692871094,4074.8718261719,4135.8974609375,4053.4614257813,4096.2822265625,4040.7692871094,4059.4870605469,4102.9487304688,4059.6154785156,4090.7692871094,4024.8718261719,4016.1538085938,,,
1.0390625000,4,4069.3588867188,4281.0258789063,4011.5385742188,4032.8205566406,4135.6411132813,4021.9230957031,4099.2309570313,4011.1538085938,4024.2307128906,4103.5898437500,4030.2563476563,4065.1281738281,3995.8974609375,3988.4614257813,,,
1.0468750000,4,4048.3332519531,4259.1025390625,3991.6667480469,4001.6667480469,4135.3847656250,3997.0512695313,4101.7949218750,3985.5129394531,3991.7949218750,4104.2309570313,4008.2050781250,4041.9230957031,3979.3588867188,3968.0769042969,,,
1.0546875000,4,4037.5642089844,4244.7436523438,3986.4101562500,3992.6923828125,4135.6411132813,3989.6154785156,4102.6923828125,3974.4870605469,3976.1538085938,4104.3588867188,4002.8205566406,4029.6154785156,3977.6923828125,3958.3332519531,,,
1.0625000000,4,4036.6667480469,4242.8203125000,3992.1794433594,4003.8461914063,4136.1538085938,3999.3588867188,4101.4101562500,3980.5129394531,3981.0256347656,4104.2309570313,4011.1538085938,4029.2307128906,3983.0769042969,3956.9230957031,,,
1.0703125000,4,4040.0000000000,4250.2563476563,3999.7436523438,4021.5385742188,4136.5385742188,4015.1281738281,4098.8461914063,3995.3845214844,3997.9487304688,4103.9741210938,4019.7436523438,4034.6154785156,3985.3845214844,3958.7180175781,,,
1.0781250000,4,4041.1538085938,4258.9741210938,4001.2819824219,4030.2563476563,4136.4101562500,4023.8461914063,4096.5385742188,4006.5385742188,4012.1794433594,4103.7177734375,4015.3845214844,4036.2819824219,3979.2307128906,3959.6154785156,,,
1.0859375000,4,4037.8205566406,4261.5385742188,3995.1281738281,4022.8205566406,4136.1538085938,4019.7436523438,4095.7692871094,4005.8974609375,4013.5898437500,4103.5898437500,3996.7949218750,4030.2563476563,3968.5898437500,3958.5898437500,,,
1.0937500000,4,4032.9487304688,4257.8203125000,3986.4101562500,4006.0256347656,4135.7690429688,4007.4357910156,4096.9228515625,3994.6154785156,4002.4357910156,4103.5898437500,3975.6411132813,4020.8974609375,3962.4357910156,3956.6667480469,,,
1.1015625000,4,4031.0256347656,4252.1796875000,3982.4357910156,3994.7436523438,4135.5126953125,3997.0512695313,4098.9741210938,3980.8974609375,3987.5642089844,4103.9741210938,3966.4101562500,4016.4101562500,3966.0256347656,3955.3845214844,,,
1.1093750000,4,4034.7436523438,4249.7436523438,3986.5385742188,4000.2563476563,4135.2563476563,3995.6411132813,4100.3847656250,3973.5898437500,3979.2307128906,4104.2309570313,3974.8718261719,4021.4101562500,3976.9230957031,3955.3845214844,,,
1.1171875000,4,4041.5385742188,4252.6923828125,3996.1538085938,4020.0000000000,4135.3847656250,4002.6923828125,4100.7690429688,3976.0256347656,3982.0512695313,4103.9741210938,3994.1025390625,4032.8205566406,3986.0256347656,3956.2819824219,,,
1.1250000000,4,4046.0256347656,4259.7436523438,4004.4870605469,4040.2563476563,4135.6411132813,4011.7949218750,4100.3847656250,3985.6411132813,3993.0769042969,4103.4614257813,4010.5129394531,4042.9487304688,3985.6411132813,3957.5642089844,,,
1.1328125000,4,4044.6154785156,4267.0512695313,4006.5385742188,4046.5385742188,4135.8974609375,4017.1794433594,4100.2563476563,3996.1538085938,4005.1281738281,4103.2050781250,4014.6154785156,4046.4101562500,3976.6667480469,3957.9487304688,,,
1.1406250000,4,4038.7180175781,4269.2309570313,4002.3076171875,4033.7180175781,4135.6411132813,4017.4357910156,4100.1284179688,4002.9487304688,4011.4101562500,4103.5898437500,4007.5642089844,4042.9487304688,3967.3076171875,3957.3076171875,,,
1.1484375000,4,4033.2050781250,4264.1025390625,3996.6667480469,4008.3332519531,4135.0000000000,4014.8718261719,4099.6152343750,4004.7436523438,4010.1281738281,4104.2309570313,3998.4614257813,4037.4357910156,3966.7949218750,3956.5385742188,,,
1.1562500000,4,4031.6667480469,4254.3588867188,3995.1281738281,3984.7436523438,4134.7436523438,4013.5898437500,4098.8461914063,4003.7180175781,4003.3332519531,4104.6152343750,3996.6667480469,4033.7180175781,3976.4101562500,3956.6667480469,,,
1.1640625000,4,4033.8461914063,4247.0512695313,3998.9743652344,3977.3076171875,4135.2563476563,4016.6667480469,4098.0771484375,4002.8205566406,3995.1281738281,4103.7177734375,4002.9487304688,4032.5642089844,3989.2307128906,3957.6923828125,,,
1.1718750000,4,4036.2819824219,4248.0771484375,4005.1281738281,3991.6667480469,4136.1538085938,4023.7180175781,4097.4360351563,4003.0769042969,3988.4614257813,4101.6665039063,4009.1025390625,4030.7692871094,3995.0000000000,3958.2050781250,,,
1.1796875000,4,4035.6411132813,4256.7949218750,4008.4614257813,4018.8461914063,4136.7949218750,4032.0512695313,4097.0512695313,4003.8461914063,3985.3845214844,4099.2309570313,4005.8974609375,4026.1538085938,3988.7180175781,3956.5385742188,,,
1.1875000000,4,4032.0512695313,4267.0512695313,4007.4357910156,4040.7692871094,4136.6665039063,4037.3076171875,4096.2822265625,4004.2307128906,3986.9230957031,4097.6923828125,3992.8205566406,4020.0000000000,3974.6154785156,3952.5642089844,,,
1.1953125000,4,4029.8718261719,4272.1796875000,4005.7692871094,4043.3332519531,4136.0258789063,4037.6923828125,4095.1281738281,4005.5129394531,3993.9743652344,4097.8203125000,3981.4101562500,4017.5642089844,3963.7180175781,3950.1281738281,,,
1.2031250000,4,4033.7180175781,4270.2563476563,4009.2307128906,4028.7180175781,4135.5126953125,4034.3588867188,4093.8461914063,4009.3588867188,4006.5385742188,4099.3588867188,3985.3845214844,4023.7180175781,3965.7692871094,3953.9743652344,,,
1.2109375000,4,4043.5898437500,4264.6152343750,4019.7436523438,4013.7180175781,4135.5126953125,4031.4101562500,4093.2050781250,4015.6411132813,4021.9230957031,4101.1538085938,4008.7180175781,4037.4357910156,3982.3076171875,3965.8974609375,,,
1.2187500000,4,4053.8461914063,4259.7436523438,4032.4357910156,4013.7180175781,4136.1538085938,4032.4357910156,4093.5898437500,4021.2819824219,4034.8718261719,4102.1796875000,4039.3588867188,4051.6667480469,4004.3588867188,3981.0256347656,,,
1.2265625000,4,4058.3332519531,4258.0771484375,4039.2307128906,4029.2307128906,4137.0512695313,4037.1794433594,4095.3845214844,4022.9487304688,4040.5129394531,4102.1796875000,4058.9743652344,4057.8205566406,4019.4870605469,3991.0256347656,,,
1.2343750000,4,4055.5129394531,4258.9741210938,4036.1538085938,4046.2819824219,4137.3076171875,4040.8974609375,4098.2050781250,4018.9743652344,4037.1794433594,4101.7949218750,4057.6923828125,4052.9487304688,4020.7692871094,3991.9230957031,,,
1.2421875000,4,4050.0000000000,4261.1538085938,4026.2819824219,4050.1281738281,4136.5385742188,4039.4870605469,4100.7690429688,4011.2819824219,4028.3332519531,4102.0512695313,4040.2563476563,4042.0512695313,4011.7949218750,3987.1794433594,,,
1.2500000000,5,4048.3332519531,4264.4873046875,4017.6923828125,4037.6923828125,4135.1284179688,4034.4870605469,4102.4360351563,4004.6154785156,4020.5129394531,4102.9487304688,4021.0256347656,4034.2307128906,4002.4357910156,3984.2307128906,,,
1.2578125000,5,4053.3332519531,4269.3588867188,4016.9230957031,4019.7436523438,4133.9741210938,4032.1794433594,4102.6923828125,4003.5898437500,4019.3588867188,4103.9741210938,4012.0512695313,4035.2563476563,4001.0256347656,3987.4357910156,,,
1.2656250000,5,4062.6923828125,4273.9741210938,4023.8461914063,4010.1281738281,4133.9741210938,4037.8205566406,4101.9228515625,4010.6411132813,4026.7949218750,4104.4873046875,4016.5385742188,4044.2307128906,4009.4870605469,3995.2563476563,,,
1.2734375000,5,4070.7692871094,4274.6152343750,4033.7180175781,4015.1281738281,4135.0000000000,4050.1281738281,4101.2822265625,4023.9743652344,4039.8718261719,4104.1025390625,4029.3588867188,4055.3845214844,4023.0769042969,4001.9230957031,,,
1.2812500000,5,4073.3332519531,4267.9487304688,4040.2563476563,4030.0000000000,4136.1538085938,4061.1538085938,4101.1538085938,4037.3076171875,4051.9230957031,4103.4614257813,4042.1794433594,4062.4357910156,4034.7436523438,4003.5898437500,,,
1.2890625000,5,4070.0000000000,4255.7690429688,4040.3845214844,4045.1281738281,4136.5385742188,4062.0512695313,4101.5385742188,4043.7180175781,4056.2819824219,4103.3334960938,4048.2050781250,4063.0769042969,4039.1025390625,4001.2819824219,,,
1.2968750000,5,4064.2307128906,4246.0258789063,4034.8718261719,4054.1025390625,4136.4101562500,4049.7436523438,4102.0512695313,4039.4870605469,4050.8974609375,4103.7177734375,4045.3845214844,4058.8461914063,4035.6411132813,3998.4614257813,,,
1.3046875000,5,4059.3588867188,4247.5639648438,4027.5642089844,4056.1538085938,4136.2822265625,4029.7436523438,4102.0512695313,4026.2819824219,4038.9743652344,4104.3588867188,4037.8205566406,4054.2307128906,4027.8205566406,3998.5898437500,,,
1.3125000000,5,4057.8205566406,4260.7690429688,4023.3332519531,4054.3588867188,4136.5385742188,4014.1025390625,4101.6665039063,4010.3845214844,4026.1538085938,4104.8715820313,4031.7949218750,4053.3332519531,4020.8974609375,4001.5385742188,,,
1.3203125000,5,4059.4870605469,4276.1538085938,4024.8718261719,4051.4101562500,4136.7949218750,4013.5898437500,4101.1538085938,4000.1281738281,4017.6923828125,4105.0000000000,4031.6667480469,4056.9230957031,4017.9487304688,4004.6154785156,,,
1.3281250000,5,4062.6923828125,4281.2822265625,4031.0256347656,4046.5385742188,4137.1796875000,4029.2307128906,4101.1538085938,4000.6411132813,4017.1794433594,4104.7436523438,4036.4101562500,4062.6923828125,4019.4870605469,4005.3845214844,,,
1.3359375000,5,4065.1281738281,4272.3076171875,4037.6923828125,4037.9487304688,4137.5639648438,4051.7949218750,4101.5385742188,4010.8974609375,4024.2307128906,4104.4873046875,4041.6667480469,4066.7949218750,4024.4870605469,4004.6154785156,,,
1.3437500000,5,4065.3845214844,4257.0512695313,4040.5129394531,4026.0256347656,4138.0771484375,4068.0769042969,4102.1796875000,4023.9743652344,4034.8718261719,4104.3588867188,4043.8461914063,4067.3076171875,4030.7692871094,4003.7180175781,,,
1.3515625000,5,4063.4614257813,4247.4360351563,4037.6923828125,4016.0256347656,4138.8461914063,4069.1025390625,4102.8203125000,4031.5385742188,4042.8205566406,4104.4873046875,4043.0769042969,4065.1281738281,4035.5129394531,4003.7180175781,,,
1.3593750000,5,4060.3845214844,4249.4873046875,4030.3845214844,4014.4870605469,4139.3588867188,4056.0256347656,4103.5898437500,4029.8718261719,4043.9743652344,4104.6152343750,4041.6667480469,4062.6923828125,4036.1538085938,4003.8461914063,,,
1.3671875000,5,4057.6923828125,4258.8461914063,4023.7180175781,4024.3588867188,4139.2309570313,4039.3588867188,4104.2309570313,4022.9487304688,4039.7436523438,4104.6152343750,4042.3076171875,4062.1794433594,4032.0512695313,4003.2050781250,,,
1.3750000000,5,4057.6923828125,4267.0512695313,4023.7180175781,4041.9230957031,4138.7177734375,4031.2819824219,4103.9741210938,4019.3588867188,4036.1538085938,4104.6152343750,4046.6667480469,4064.8718261719,4026.1538085938,4003.0769042969,,,
1.3828125000,5,4062.4357910156,4268.8461914063,4032.8205566406,4058.7180175781,4137.8203125000,4036.9230957031,4102.8203125000,4024.2307128906,4039.2307128906,4104.4873046875,4053.9743652344,4070.6411132813,4023.5898437500,4005.7692871094,,,
1.3906250000,5,4071.5385742188,4266.0258789063,4047.3076171875,4066.2819824219,4136.9228515625,4050.7692871094,4101.5385742188,4034.6154785156,4049.1025390625,4104.6152343750,4061.5385742188,4077.1794433594,4028.5898437500,4011.5385742188,,,
1.3984375000,5,4080.3845214844,4264.7436523438,4058.5898437500,4061.6667480469,4136.7949218750,4061.7949218750,4101.0258789063,4041.6667480469,4059.1025390625,4104.6152343750,4065.5129394531,4081.0256347656,4039.7436523438,4016.9230957031,,,
1.4062500000,5,4083.0769042969,4268.5898437500,4059.3588867188,4049.4870605469,4137.4360351563,4061.7949218750,4101.2822265625,4038.2050781250,4061.1538085938,4104.6152343750,4064.4870605469,4079.1025390625,4050.1281738281,4016.9230957031,,,
1.4140625000,5,4077.9487304688,4274.3588867188,4050.0000000000,4037.8205566406,4138.2050781250,4051.5385742188,4101.5385742188,4024.8718261719,4052.6923828125,4104.4873046875,4060.0000000000,4072.3076171875,4051.9230957031,4010.3845214844,,,
1.4218750000,5,4069.3588867188,4275.2563476563,4038.0769042969,4033.0769042969,4138.4614257813,4038.8461914063,4100.7690429688,4009.7436523438,4038.9743652344,4104.6152343750,4055.6411132813,4065.1281738281,4043.4614257813,4002.3076171875,,,
1.4296875000,5,4063.7180175781,4268.7177734375,4031.9230957031,4036.4101562500,4137.4360351563,4032.3076171875,4099.2309570313,4002.4357910156,4028.5898437500,4104.6152343750,4053.2050781250,4062.1794433594,4030.6411132813,3999.2307128906,,,
1.4375000000,5,4064.3588867188,4259.6152343750,4034.6154785156,4044.2307128906,4135.7690429688,4035.3845214844,4098.3334960938,4007.0512695313,4027.4357910156,4104.4873046875,4051.0256347656,4063.9743652344,4022.4357910156,4003.2050781250,,,
1.4453125000,5,4069.8718261719,4255.3847656250,4042.4357910156,4050.3845214844,4134.8715820313,4044.7436523438,4098.9741210938,4018.8461914063,4034.1025390625,4104.4873046875,4046.9230957031,4067.4357910156,4023.7180175781,4010.2563476563,,,
1.4531250000,5,4075.7692871094,4258.5898437500,4049.2307128906,4050.7692871094,4135.5126953125,4052.9487304688,4100.6411132813,4028.8461914063,4042.1794433594,4104.6152343750,4042.3076171875,4068.5898437500,4031.9230957031,4014.4870605469,,,
1.4609375000,5,4079.2307128906,4265.5126953125,4051.2819824219,4046.2819824219,4137.0512695313,4055.3845214844,4101.7949218750,4030.8974609375,4047.1794433594,4104.6152343750,4041.0256347656,4066.6667480469,4040.6411132813,4013.0769042969,,,
1.4687500000,5,4080.0000000000,4270.8974609375,4049.2307128906,4042.1794433594,4137.9487304688,4052.8205566406,4101.5385742188,4027.3076171875,4050.1281738281,4104.4873046875,4046.4101562500,4064.1025390625,4045.2563476563,4008.9743652344,,,
1.4765625000,5,4079.7436523438,4272.3076171875,4046.1538085938,4043.4614257813,4137.6923828125,4049.4870605469,4100.7690429688,4025.6411132813,4057.0512695313,4104.6152343750,4058.0769042969,4063.9743652344,4046.2819824219,4007.6923828125,,,
1.4843750000,5,4079.7436523438,4270.3847656250,4044.7436523438,4049.8718261719,4136.7949218750,4048.0769042969,4100.7690429688,4031.1538085938,4070.0000000000,4104.6152343750,4071.1538085938,4066.9230957031,4047.6923828125,4012.1794433594,,,
1.4921875000,5,4079.6154785156,4266.0258789063,4045.1281738281,4055.5129394531,4136.7949218750,4048.4614257813,4102.0512695313,4040.2563476563,4082.3076171875,4104.6152343750,4079.6154785156,4070.2563476563,4051.2819824219,4018.9743652344,,,
1.5000000000,6,4078.3332519531,4260.2563476563,4045.7692871094,4053.8461914063,4137.6923828125,4049.6154785156,4103.4614257813,4045.0000000000,4083.2050781250,4104.4873046875,4079.7436523438,4070.8974609375,4055.2563476563,4022.1794433594,,,
1.5078125000,6,4075.8974609375,4254.1025390625,4045.1281738281,4043.8461914063,4138.7177734375,4051.6667480469,4103.5898437500,4040.0000000000,4068.8461914063,4104.6152343750,4073.0769042969,4068.2050781250,4055.3845214844,4018.8461914063,,,
1.5156250000,6,4073.8461914063,4249.7436523438,4042.6923828125,4032.1794433594,4138.8461914063,4055.3845214844,4102.3076171875,4027.5642089844,4047.4357910156,4104.6152343750,4064.2307128906,4063.9743652344,4050.6411132813,4011.9230957031,,,
1.5234375000,6,4073.8461914063,4250.0000000000,4040.2563476563,4028.4614257813,4138.0771484375,4060.2563476563,4100.3847656250,4015.1281738281,4032.1794433594,4104.6152343750,4057.1794433594,4060.8974609375,4043.8461914063,4007.1794433594,,,
1.5312500000,6,4076.2819824219,4255.7690429688,4039.6154785156,4037.8205566406,4137.4360351563,4064.4870605469,4098.9741210938,4010.2563476563,4031.4101562500,4104.4873046875,4053.7180175781,4060.3845214844,4039.3588867188,4007.0512695313,,,
1.5390625000,6,4078.4614257813,4263.9741210938,4041.0256347656,4054.8718261719,4137.5639648438,4066.1538085938,4098.4614257813,4015.5129394531,4042.4357910156,4104.6152343750,4053.7180175781,4062.3076171875,4038.9743652344,4009.3588867188,,,
1.5468750000,6,4077.6923828125,4269.4873046875,4043.0769042969,4067.0512695313,4138.3334960938,4064.8718261719,4098.8461914063,4026.7949218750,4055.7692871094,4104.6152343750,4056.4101562500,4065.2563476563,4040.5129394531,4010.3845214844,,,
1.5546875000,6,4073.3332519531,4268.9741210938,4043.4614257813,4065.1281738281,4138.8461914063,4062.6923828125,4100.0000000000,4036.6667480469,4062.5642089844,4104.4873046875,4061.1538085938,4068.2050781250,4041.1538085938,4008.7180175781,,,
1.5625000000,6,4068.7180175781,4263.2050781250,4042.0512695313,4050.8974609375,4138.7177734375,4062.4357910156,4101.9228515625,4039.7436523438,4060.6411132813,4104.4873046875,4066.5385742188,4071.1538085938,4040.0000000000,4006.5385742188,,,
1.5703125000,6,4068.2050781250,4256.1538085938,4040.2563476563,4035.7692871094,4138.2050781250,4064.7436523438,4103.5898437500,4035.8974609375,4054.2307128906,4104.6152343750,4071.0256347656,4073.7180175781,4040.0000000000,4007.5642089844,,,
1.5781250000,6,4073.0769042969,4251.6665039063,4039.3588867188,4030.5129394531,4138.3334960938,4066.7949218750,4104.2309570313,4029.3588867188,4049.4870605469,4104.6152343750,4072.9487304688,4075.3845214844,4044.4870605469,4012.9487304688,,,
1.5859375000,6,4080.8974609375,4252.0512695313,4039.2307128906,4037.3076171875,4139.2309570313,4063.9743652344,4103.5898437500,4025.0000000000,4050.1281738281,4104.4873046875,4073.0769042969,4075.3845214844,4053.0769042969,4020.3845214844,,,
1.5937500000,6,4087.0512695313,4256.9228515625,4038.8461914063,4049.4870605469,4140.6411132813,4054.4870605469,4102.1796875000,4025.1281738281,4054.6154785156,4104.6152343750,4073.8461914063,4073.9743652344,4061.5385742188,4026.2819824219,,,
1.6015625000,6,4088.5898437500,4262.9487304688,4037.6923828125,4057.8205566406,4141.7949218750,4043.0769042969,4100.7690429688,4028.2050781250,4058.7180175781,4104.6152343750,4077.6923828125,4073.2050781250,4064.4870605469,4028.0769042969,,,
1.6093750000,6,4086.2819824219,4265.7690429688,4036.1538085938,4057.8205566406,4141.6665039063,4038.4614257813,4100.0000000000,4031.9230957031,4059.2307128906,4104.6152343750,4084.4870605469,4075.0000000000,4061.1538085938,4026.2819824219,,,
1.6171875000,6,4083.4614257813,4263.3334960938,4035.5129394531,4053.4614257813,4139.8715820313,4046.1538085938,4100.0000000000,4035.2563476563,4056.7949218750,4104.4873046875,4090.5129394531,4078.8461914063,4055.2563476563,4023.5898437500,,,
1.6250000000,6,4083.4614257813,4258.2050781250,4037.1794433594,4052.5642089844,4137.3076171875,4063.2050781250,4100.5126953125,4038.7180175781,4054.8718261719,4104.6152343750,4091.1538085938,4082.6923828125,4051.4101562500,4022.9487304688,,,
1.6328125000,6,4086.9230957031,4254.4873046875,4040.5129394531,4058.3332519531,4135.3847656250,4078.5898437500,4101.0258789063,4042.8205566406,4057.1794433594,4104.6152343750,4084.3588867188,4083.4614257813,4051.1538085938,4025.5129394531,,,
1.6406250000,6,4091.6667480469,4255.1284179688,4042.9487304688,4065.6411132813,4135.2563476563,4081.2819824219,4101.5385742188,4046.4101562500,4063.4614257813,4104.6152343750,4072.8205566406,4080.6411132813,4051.9230957031,4029.3588867188,,,
1.6484375000,6,4094.6154785156,4259.3588867188,4041.1538085938,4066.2819824219,4137.3076171875,4068.2050781250,4101.9228515625,4047.0512695313,4070.5129394531,4104.4873046875,4062.4357910156,4076.1538085938,4051.5385742188,4031.5385742188,,,
1.6562500000,6,4094.3588867188,4264.8715820313,4034.1025390625,4057.4357910156,4140.2563476563,4047.0512695313,4101.6665039063,4043.0769042969,4073.8461914063,4104.6152343750,4059.7436523438,4073.2050781250,4050.8974609375,4031.1538085938,,,
1.6640625000,6,4091.4101562500,4268.9741210938,4024.4870605469,4045.1281738281,4142.0512695313,4029.8718261719,4100.6411132813,4034.1025390625,4070.6411132813,4104.6152343750,4066.0256347656,4073.5898437500,4052.0512695313,4029.4870605469,,,
1.6718750000,6,4087.8205566406,4269.2309570313,4016.9230957031,4039.4870605469,4141.1538085938,4025.2563476563,4098.8461914063,4022.5642089844,4060.6411132813,4104.4873046875,4076.4101562500,4075.8974609375,4055.1281738281,4028.3332519531,,,
1.6796875000,6,4085.8974609375,4265.1284179688,4015.5129394531,4045.0000000000,4138.8461914063,4032.9487304688,4097.0512695313,4012.3076171875,4046.5385742188,4104.4873046875,4082.4357910156,4077.1794433594,4057.5642089844,4028.8461914063,,,
1.6875000000,6,4086.5385742188,4258.4614257813,4020.8974609375,4056.7949218750,4137.4360351563,4046.4101562500,4096.0258789063,4007.8205566406,4034.1025390625,4104.6152343750,4080.0000000000,4076.7949218750,4057.1794433594,4031.4101562500,,,
1.6953125000,6,4089.6154785156,4252.8203125000,4029.7436523438,4064.6154785156,4138.7177734375,4057.9487304688,4096.5385742188,4010.6411132813,4029.2307128906,4104.6152343750,4072.6923828125,4076.5385742188,4055.1281738281,4036.5385742188,,,
1.7031250000,6,4093.2050781250,4252.4360351563,4036.7949218750,4062.5642089844,4141.9228515625,4064.2307128906,4098.7177734375,4019.4870605469,4034.4870605469,4104.4873046875,4068.4614257813,4078.2050781250,4054.6154785156,4043.8461914063,,,
1.7109375000,6,4095.6411132813,4258.4614257813,4038.4614257813,4055.2563476563,4144.4873046875,4067.1794433594,4101.1538085938,4030.6411132813,4046.4101562500,4104.6152343750,4071.9230957031,4082.1794433594,4057.9487304688,4050.6411132813,,,
1.7187500000,6,4096.5385742188,4267.0512695313,4035.5129394531,4052.3076171875,4144.7436523438,4070.2563476563,4102.6923828125,4041.2819824219,4059.6154785156,4104.6152343750,4081.7949218750,4086.7949218750,4064.1025390625,4053.8461914063,,,
1.7265625000,6,4095.7692871094,4270.5126953125,4031.2819824219,4059.1025390625,4143.3334960938,4074.3588867188,4102.5639648438,4049.7436523438,4069.4870605469,4104.6152343750,4091.9230957031,4089.7436523438,4069.1025390625,4051.9230957031,,,
1.7343750000,6,4094.3588867188,4263.7177734375,4028.8461914063,4070.3845214844,4142.0512695313,4076.7949218750,4101.1538085938,4054.6154785156,4073.9743652344,4104.4873046875,4096.1538085938,4089.1025390625,4069.1025390625,4046.2819824219,,,
1.7421875000,6,4092.3076171875,4249.2309570313,4028.0769042969,4075.8974609375,4142.8203125000,4073.8461914063,4099.6152343750,4053.5898437500,4071.9230957031,4104.6152343750,4091.1538085938,4084.1025390625,4062.9487304688,4040.0000000000,,,
1.7500000000,7,4089.3588867188,4236.2822265625,4026.7949218750,4067.5642089844,4145.6411132813,4064.7436523438,4099.2309570313,4046.1538085938,4064.3588867188,4104.6152343750,4078.3332519531,4076.2819824219,4053.8461914063,4035.1281738281,,,
1.7578125000,7,4085.7692871094,4233.9741210938,4023.4614257813,4047.0512695313,4149.2309570313,4053.4614257813,4100.1284179688,4036.2819824219,4056.2819824219,4104.6152343750,4064.1025390625,4068.8461914063,4047.4357910156,4032.3076171875,,,
1.7656250000,7,4082.6923828125,4244.2309570313,4019.4870605469,4025.7692871094,4151.2822265625,4046.6667480469,4101.9228515625,4030.7692871094,4055.1281738281,4104.4873046875,4056.2819824219,4065.5129394531,4048.3332519531,4031.7949218750,,,
1.7734375000,7,4082.3076171875,4260.6411132813,4018.2050781250,4020.1281738281,4150.8974609375,4049.4870605469,4103.4614257813,4035.2563476563,4065.1281738281,4104.6152343750,4059.8718261719,4068.5898437500,4057.0512695313,4034.2307128906,,,
1.7812500000,7,4085.7692871094,4273.8461914063,4022.0512695313,4039.7436523438,4149.1025390625,4060.7692871094,4103.3334960938,4048.0769042969,4082.0512695313,4104.6152343750,4073.2050781250,4076.9230957031,4069.1025390625,4039.4870605469,,,
1.7890625000,7,4092.4357910156,4276.6665039063,4029.8718261719,4077.8205566406,4148.0771484375,4074.1025390625,4101.6665039063,4061.1538085938,4095.1281738281,4104.4873046875,4089.3588867188,4086.7949218750,4078.4614257813,4046.1538085938,,,
1.7968750000,7,4099.1025390625,4269.6152343750,4038.2050781250,4113.4614257813,4148.9741210938,4081.1538085938,4099.8715820313,4065.3845214844,4094.6154785156,4104.4873046875,4100.7690429688,4094.2307128906,4080.6411132813,4051.2819824219,,,
1.8046875000,7,4102.3076171875,4259.3588867188,4042.8205566406,4125.5126953125,4151.0258789063,4077.9487304688,4099.1025390625,4057.8205566406,4079.8718261719,4104.6152343750,4102.9487304688,4096.7949218750,4075.7692871094,4052.1794433594,,,
1.8125000000,7,4100.5126953125,4253.5898437500,4041.4101562500,4107.5639648438,4152.3076171875,4067.6923828125,4099.1025390625,4043.5898437500,4059.2307128906,4104.6152343750,4096.5385742188,4094.7436523438,4067.3076171875,4048.3332519531,,,
1.8203125000,7,4094.6154785156,4254.7436523438,4035.3845214844,4071.4101562500,4151.6665039063,4058.0769042969,4099.2309570313,4031.5385742188,4043.8461914063,4104.4873046875,4086.0256347656,4090.1281738281,4060.2563476563,4041.9230957031,,,
1.8281250000,7,4088.5898437500,4257.8203125000,4028.5898437500,4037.8205566406,4150.2563476563,4055.5129394531,4099.7436523438,4027.8205566406,4040.5129394531,4104.6152343750,4077.6923828125,4086.1538085938,4057.3076171875,4036.1538085938,,,
1.8359375000,7,4087.0512695313,4256.7949218750,4025.6411132813,4023.4614257813,4149.8715820313,4060.6411132813,4100.7690429688,4033.0769042969,4048.4614257813,4104.6152343750,4076.0256347656,4085.7692871094,4057.5642089844,4033.9743652344,,,
1.8437500000,7,4092.0512695313,4250.6411132813,4028.3332519531,4032.1794433594,4151.2822265625,4068.9743652344,4102.0512695313,4042.6923828125,4062.1794433594,4104.6152343750,4081.6667480469,4089.6154785156,4058.7180175781,4036.2819824219,,,
1.8515625000,7,4100.3847656250,4244.8715820313,4034.8718261719,4055.1281738281,4153.0771484375,4073.7180175781,4102.8203125000,4051.9230957031,4076.1538085938,4104.4873046875,4090.5129394531,4095.0000000000,4058.7180175781,4041.5385742188,,,
1.8593750000,7,4106.9228515625,4245.8974609375,4041.5385742188,4078.3332519531,4153.3334960938,4071.6667480469,4102.4360351563,4057.4357910156,4087.3076171875,4104.6152343750,4097.3076171875,4098.9741210938,4058.4614257813,4046.6667480469,,,
1.8671875000,7,4108.0771484375,4253.5898437500,4044.8718261719,4090.5129394531,4151.4101562500,4064.3588867188,4101.2822265625,4058.2050781250,4093.8461914063,4104.6152343750,4098.4614257813,4099.6152343750,4059.6154785156,4048.0769042969,,,
1.8750000000,7,4104.1025390625,4262.3076171875,4043.7180175781,4089.2307128906,4148.9741210938,4056.6667480469,4100.5126953125,4053.7180175781,4094.2307128906,4104.6152343750,4095.2563476563,4097.4360351563,4063.5898437500,4045.1281738281,,,
1.8828125000,7,4098.4614257813,4265.2563476563,4039.3588867188,4080.7692871094,4148.5898437500,4053.3332519531,4100.8974609375,4044.8718261719,4088.0769042969,4104.4873046875,4092.1794433594,4094.1025390625,4069.8718261719,4040.3845214844,,,
1.8906250000,7,4095.2563476563,4260.8974609375,4034.8718261719,4073.8461914063,4150.5126953125,4055.6411132813,4102.0512695313,4034.6154785156,4077.3076171875,4104.6152343750,4092.4357910156,4090.7692871094,4075.8974609375,4038.4614257813,,,
1.8984375000,7,4096.5385742188,4253.3334960938,4033.4614257813,4073.2050781250,4153.0771484375,4060.8974609375,4102.5639648438,4027.5642089844,4066.9230957031,4104.6152343750,4094.2307128906,4089.1025390625,4078.8461914063,4042.6923828125,,,
1.9062500000,7,4101.5385742188,4247.4360351563,4035.7692871094,4076.2819824219,4153.7177734375,4065.5129394531,4102.1796875000,4027.8205566406,4062.6923828125,4104.4873046875,4094.1025390625,4090.0000000000,4077.8205566406,4051.6667480469,,,
1.9140625000,7,4106.7949218750,4245.6411132813,4039.7436523438,4077.3076171875,4151.2822265625,4068.2050781250,4101.0258789063,4035.5129394531,4066.5385742188,4104.4873046875,4090.1281738281,4092.5642089844,4074.2307128906,4060.1281738281,,,
1.9218750000,7,4108.7177734375,4246.0258789063,4042.4357910156,4072.6923828125,4146.6665039063,4070.6411132813,4100.0000000000,4046.1538085938,4074.3588867188,4104.6152343750,4084.3588867188,4094.3588867188,4070.6411132813,4062.4357910156,,,
1.9296875000,7,4105.6411132813,4245.0000000000,4041.9230957031,4065.0000000000,4142.3076171875,4073.9743652344,4099.3588867188,4053.3332519531,4079.4870605469,4104.6152343750,4080.1281738281,4093.8461914063,4069.1025390625,4057.0512695313,,,
1.9375000000,7,4099.1025390625,4240.3847656250,4038.8461914063,4059.8718261719,4140.7690429688,4077.1794433594,4099.1025390625,4053.7180175781,4079.1025390625,4104.4873046875,4079.2307128906,4091.5385742188,4069.6154785156,4047.4357910156,,,
1.9453125000,7,4092.4357910156,4233.8461914063,4036.0256347656,4061.0256347656,4142.8203125000,4078.5898437500,4098.9741210938,4049.6154785156,4076.1538085938,4104.6152343750,4081.0256347656,4090.0000000000,4070.1281738281,4040.1281738281,,,
1.9531250000,7,4088.8461914063,4229.7436523438,4036.0256347656,4067.5642089844,4146.9228515625,4077.8205566406,4098.4614257813,4047.0512695313,4076.0256347656,4104.6152343750,4084.4870605469,4091.7949218750,4069.6154785156,4040.0000000000,,,
1.9609375000,7,4090.1281738281,4232.6923828125,4039.4870605469,4075.5129394531,4151.6665039063,4076.0256347656,4097.6923828125,4050.0000000000,4081.0256347656,4104.6152343750,4089.7436523438,4097.4360351563,4069.7436523438,4047.3076171875,,,
1.9687500000,7,4095.3845214844,4243.3334960938,4044.8718261719,4080.6411132813,4155.0000000000,4074.1025390625,4096.9228515625,4057.8205566406,4088.7180175781,4104.4873046875,4097.3076171875,4104.6152343750,4072.9487304688,4057.5642089844,,,
1.9765625000,7,4101.9228515625,4256.5385742188,4049.3588867188,4080.5129394531,4155.2563476563,4072.4357910156,4096.9228515625,4066.4101562500,4095.5129394531,4104.6152343750,4106.4101562500,4110.3847656250,4080.0000000000,4065.1281738281,,,
1.9843750000,7,4106.7949218750,4265.1284179688,4051.6667480469,4076.2819824219,4151.4101562500,4072.3076171875,4098.3334960938,4072.0512695313,4098.9741210938,4104.6152343750,4113.9741210938,4112.5639648438,4087.6923828125,4066.7949218750,,,
1.9921875000,7,4108.2050781250,4264.8715820313,4052.1794433594,4072.6923828125,4145.0000000000,4075.3845214844,4100.8974609375,4074.3588867188,4099.6152343750,4104.6152343750,4115.2563476563,4110.6411132813,4091.7949218750,4063.9743652344,,,
2.0000000000,8,4106.4101562500,4258.2050781250,4052.3076171875,4074.3588867188,4139.7436523438,4081.6667480469,4103.0771484375,4074.6154785156,4099.4873046875,4104.4873046875,4108.0771484375,4106.1538085938,4090.8974609375,4060.2563476563,,,
2.0078125000,8,4103.3334960938,4250.5126953125,4053.0769042969,4082.6923828125,4138.9741210938,4088.8461914063,4103.2050781250,4075.0000000000,4100.5126953125,4104.6152343750,4096.5385742188,4102.1796875000,4087.5642089844,4058.5898437500,,,
2.0156250000,8,4101.5385742188,4246.0258789063,4053.9743652344,4094.1025390625,4142.4360351563,4093.3332519531,4100.7690429688,4076.6667480469,4103.3334960938,4104.6152343750,4090.0000000000,4102.4360351563,4085.5129394531,4059.4870605469,32769:32777,2.0156250000:2.0156250000,0.0000000000:0.0000000000
2.0234375000,8,4102.4360351563,4245.7690429688,4053.9743652344,4101.4101562500,4146.7949218750,4092.1794433594,4096.5385742188,4078.9743652344,4106.0258789063,4104.4873046875,4095.2563476563,4107.4360351563,4087.1794433594,4061.5385742188,,,
2.0312500000,8,4105.5126953125,4247.0512695313,4052.1794433594,4099.4873046875,4148.4614257813,4084.2307128906,4092.8205566406,4077.9487304688,4105.1284179688,4104.4873046875,4109.4873046875,4113.5898437500,4090.7692871094,4062.4357910156,,,
2.0390625000,8,4108.3334960938,4246.6665039063,4048.7180175781,4088.0769042969,4147.3076171875,4071.5385742188,4091.5385742188,4069.3588867188,4096.9228515625,4104.6152343750,4121.2822265625,4115.2563476563,4092.0512695313,4060.3845214844,,,
2.0468750000,8,4108.0771484375,4242.4360351563,4045.0000000000,4072.1794433594,4145.2563476563,4060.1281738281,4093.2050781250,4055.2563476563,4082.5642089844,4104.6152343750,4119.6152343750,4109.2309570313,4087.4357910156,4054.7436523438,,,
2.0546875000,8,4104.2309570313,4235.2563476563,4042.0512695313,4059.8718261719,4144.3588867188,4058.0769042969,4096.4101562500,4044.3588867188,4069.6154785156,4104.4873046875,4103.8461914063,4097.4360351563,4077.1794433594,4047.0512695313,,,
2.0625000000,8,4098.0771484375,4228.4614257813,4040.7692871094,4056.7949218750,4145.7690429688,4070.0000000000,4097.9487304688,4046.7949218750,4068.3332519531,4104.6152343750,4084.3588867188,4086.0256347656,4066.2819824219,4040.8974609375,,,
2.0703125000,8,4092.5642089844,4225.3847656250,4041.4101562500,4063.0769042969,4148.5898437500,4092.0512695313,4096.7949218750,4064.3588867188,4082.3076171875,4104.6152343750,4074.8718261719,4080.7692871094,4060.5129394531,4039.6154785156,,,
2.0781250000,8,4090.0000000000,4227.3076171875,4043.2050781250,4073.4614257813,4150.6411132813,4111.9228515625,4094.2307128906,4085.6411132813,4103.5898437500,4104.6152343750,4081.4101562500,4083.3332519531,4062.1794433594,4043.9743652344,,,
2.0859375000,8,4091.0256347656,4232.8203125000,4045.1281738281,4081.5385742188,4150.6411132813,4116.0258789063,4092.8205566406,4093.8461914063,4116.4101562500,4104.4873046875,4097.5639648438,4090.3845214844,4068.9743652344,4051.7949218750,,,
2.0937500000,8,4095.0000000000,4239.7436523438,4046.1538085938,4083.3332519531,4148.7177734375,4098.5898437500,4093.3332519531,4078.8461914063,4109.3588867188,4104.6152343750,4110.1284179688,4095.3845214844,4075.7692871094,4059.2307128906,,,
2.1015625000,8,4100.1284179688,4246.6665039063,4046.1538085938,4080.0000000000,4146.4101562500,4067.3076171875,4094.7436523438,4046.5385742188,4084.7436523438,4104.6152343750,4110.6411132813,4094.8718261719,4079.7436523438,4063.7180175781,,,
2.1093750000,8,4105.0000000000,4253.5898437500,4046.5385742188,4077.6923828125,4146.2822265625,4040.5129394531,4095.5129394531,4015.5129394531,4056.9230957031,4104.6152343750,4101.9228515625,4091.0256347656,4081.5385742188,4064.8718261719,,,
2.1171875000,8,4108.7177734375,4260.2563476563,4048.5898437500,4082.3076171875,4148.8461914063,4035.1281738281,4095.5129394531,4004.2307128906,4042.1794433594,4104.4873046875,4095.1281738281,4089.2307128906,4083.5898437500,4064.6154785156,,,
2.1250000000,8,4110.2563476563,4265.3847656250,4051.7949218750,4095.2563476563,4152.6923828125,4054.7436523438,4095.8974609375,4017.4357910156,4046.5385742188,4104.6152343750,4098.7177734375,4093.2050781250,4087.0512695313,4064.2307128906,,,
2.1328125000,8,4109.1025390625,4267.0512695313,4054.3588867188,4111.5385742188,4154.7436523438,4086.1538085938,4097.0512695313,4043.8461914063,4063.4614257813,4104.6152343750,4110.8974609375,4100.6411132813,4090.6411132813,4063.9743652344,,,
2.1406250000,8,4106.0258789063,4264.7436523438,4054.8718261719,4121.6665039063,4153.3334960938,4108.7177734375,4098.5898437500,4065.7692871094,4080.2563476563,4104.4873046875,4122.1796875000,4106.5385742188,4092.8205566406,4063.8461914063,,,
2.1484375000,8,4103.7177734375,4259.4873046875,4053.2050781250,4118.0771484375,4149.7436523438,4109.3588867188,4099.4873046875,4071.5385742188,4088.0769042969,4104.4873046875,4123.8461914063,4107.3076171875,4093.7180175781,4063.5898437500,,,
2.1562500000,8,4103.9741210938,4252.5639648438,4050.8974609375,4100.1284179688,4146.0258789063,4090.7692871094,4099.3588867188,4063.0769042969,4086.9230957031,4104.6152343750,4114.8715820313,4103.7177734375,4094.2307128906,4064.1025390625,,,
2.1640625000,8,4106.4101562500,4244.6152343750,4049.8718261719,4075.7692871094,4143.7177734375,4068.0769042969,4098.3334960938,4051.7949218750,4083.2050781250,4104.6152343750,4103.4614257813,4099.7436523438,4095.0000000000,4065.5129394531,,,
2.1718750000,8,4108.9741210938,4236.7949218750,4051.5385742188,4058.0769042969,4143.3334960938,4056.7949218750,4097.0512695313,4047.9487304688,4082.6923828125,4104.4873046875,4099.8715820313,4099.2309570313,4095.5129394531,4067.0512695313,,,
2.1796875000,8,4109.6152343750,4231.1538085938,4055.3845214844,4057.0512695313,4144.8715820313,4061.5385742188,4096.6665039063,4053.3332519531,4085.3845214844,4104.6152343750,4108.2050781250,4102.8203125000,4095.3845214844,4067.6923828125,,,
2.1875000000,8,4108.2050781250,4230.1284179688,4059.7436523438,4073.7180175781,4148.3334960938,4074.8718261719,4098.2050781250,4060.8974609375,4087.3076171875,4104.6152343750,4122.0512695313,4107.8203125000,4093.9743652344,4066.5385742188,,,
2.1953125000,8,4105.8974609375,4234.2309570313,4061.7949218750,4099.3588867188,4152.3076171875,4085.2563476563,4100.8974609375,4063.3332519531,4085.6411132813,4104.6152343750,4130.0000000000,4110.5126953125,4091.9230957031,4064.3588867188,,,
2.2031250000,8,4104.2309570313,4240.5126953125,4060.2563476563,4119.8715820313,4154.3588867188,4086.5385742188,4102.9487304688,4060.1281738281,4083.2050781250,4104.4873046875,4125.2563476563,4109.1025390625,4090.1281738281,4063.2050781250,,,
2.2109375000,8,4103.9741210938,4244.7436523438,4056.5385742188,4124.6152343750,4153.4614257813,4081.0256347656,4102.6923828125,4056.7949218750,4085.2563476563,4104.6152343750,4111.6665039063,4105.6411132813,4089.3588867188,4064.2307128906,,,
2.2187500000,8,4105.2563476563,4245.2563476563,4053.5898437500,4112.3076171875,4150.8974609375,4076.2819824219,4100.3847656250,4058.5898437500,4093.3332519531,4104.6152343750,4100.0000000000,4103.7177734375,4090.1281738281,4066.4101562500,,,
2.2265625000,8,4107.4360351563,4243.9741210938,4053.4614257813,4092.0512695313,4149.4873046875,4078.2050781250,4098.4614257813,4064.6154785156,4102.4360351563,4104.6152343750,4099.3588867188,4106.4101562500,4092.1794433594,4067.3076171875,,,
2.2343750000,8,4110.0000000000,4245.5126953125,4056.1538085938,4076.2819824219,4150.5126953125,4086.1538085938,4098.7177734375,4069.8718261719,4105.8974609375,4104.4873046875,4110.2563476563,4113.0771484375,4095.1281738281,4066.2819824219,,,
2.2421875000,8,4112.3076171875,4251.7949218750,4059.8718261719,4073.3332519531,4152.3076171875,4093.8461914063,4100.7690429688,4070.2563476563,4101.7949218750,4104.6152343750,4125.1284179688,4119.8715820313,4099.1025390625,4065.6411132813,,,
2.2500000000,9,4113.7177734375,4259.4873046875,4062.6923828125,4082.1794433594,4152.6923828125,4094.8718261719,4102.8203125000,4066.7949218750,4095.1281738281,4104.6152343750,4133.7177734375,4123.3334960938,4102.4360351563,4067.9487304688,,,
2.2578125000,9,4113.4614257813,4261.9228515625,4063.4614257813,4093.8461914063,4151.2822265625,4089.3588867188,4103.0771484375,4063.2050781250,4091.9230957031,4104.4873046875,4129.7436523438,4121.6665039063,4101.7949218750,4073.0769042969,,,
2.2656250000,9,4111.1538085938,4255.2563476563,4062.1794433594,4099.4873046875,4149.8715820313,4083.4614257813,4101.7949218750,4063.2050781250,4093.8461914063,4104.4873046875,4116.1538085938,4116.2822265625,4095.1281738281,4077.6923828125,,,
2.2734375000,9,4107.8203125000,4242.8203125000,4060.1281738281,4096.1538085938,4150.1284179688,4082.8205566406,4100.5126953125,4066.4101562500,4097.5639648438,4104.6152343750,4101.6665039063,4109.6152343750,4085.0000000000,4077.9487304688,,,
2.2812500000,9,4105.7690429688,4232.3076171875,4058.5898437500,4088.9743652344,4151.6665039063,4086.9230957031,4100.1284179688,4069.4870605469,4098.8461914063,4104.6152343750,4095.3845214844,4104.7436523438,4077.3076171875,4073.2050781250,,,
2.2890625000,9,4106.4101562500,4230.5126953125,4057.8205566406,4086.0256347656,4152.8203125000,4090.3845214844,4100.5126953125,4068.9743652344,4096.5385742188,4104.4873046875,4100.7690429688,4103.3334960938,4077.1794433594,4065.7692871094,,,
2.2968750000,9,4108.3334960938,4237.1796875000,4057.0512695313,4092.6923828125,4152.4360351563,4088.9743652344,4101.2822265625,4063.9743652344,4092.5642089844,4104.6152343750,4114.1025390625,4105.3847656250,4083.9743652344,4059.4870605469,,,
2.3046875000,9,4108.4614257813,4245.8974609375,4055.8974609375,4107.4360351563,4151.0258789063,4082.6923828125,4101.7949218750,4056.9230957031,4089.3588867188,4104.6152343750,4126.4101562500,4108.7177734375,4091.9230957031,4056.6667480469,,,
2.3125000000,9,4105.0000000000,4248.2050781250,4054.8718261719,4122.1796875000,4150.1284179688,4075.5129394531,4102.3076171875,4050.8974609375,4088.5898437500,4104.6152343750,4129.6152343750,4109.6152343750,4094.3588867188,4056.7949218750,,,
2.3203125000,9,4099.3588867188,4240.6411132813,4054.2307128906,4126.6665039063,4150.3847656250,4071.4101562500,4102.3076171875,4048.2050781250,4089.3588867188,4104.4873046875,4121.0258789063,4106.4101562500,4088.5898437500,4057.4357910156,,,
2.3281250000,9,4094.7436523438,4228.2050781250,4053.3332519531,4115.7690429688,4151.5385742188,4071.2819824219,4101.5385742188,4047.9487304688,4089.4870605469,4104.6152343750,4105.1284179688,4100.3847656250,4077.9487304688,4055.7692871094,,,
2.3359375000,9,4093.7180175781,4220.1284179688,4051.2819824219,4093.4614257813,4152.5639648438,4072.4357910156,4100.3847656250,4048.0769042969,4086.9230957031,4104.6152343750,4090.3845214844,4094.8718261719,4069.7436523438,4052.4357910156,,,
2.3437500000,9,4096.6665039063,4222.5639648438,4048.2050781250,4071.5385742188,4152.9487304688,4072.1794433594,4100.0000000000,4047.8205566406,4083.5898437500,4104.6152343750,4083.8461914063,4092.8205566406,4070.1281738281,4050.8974609375,,,
2.3515625000,9,4101.2822265625,4233.2050781250,4046.1538085938,4061.9230957031,4152.5639648438,4070.5129394531,4100.6411132813,4049.2307128906,4083.8461914063,4104.4873046875,4087.6923828125,4094.8718261719,4078.8461914063,4054.2307128906,,,
2.3593750000,9,4105.1284179688,4243.7177734375,4047.1794433594,4068.0769042969,4152.0512695313,4069.6154785156,4101.6665039063,4054.3588867188,4090.7692871094,4104.6152343750,4098.4614257813,4099.6152343750,4089.7436523438,4062.1794433594,,,
2.3671875000,9,4106.2822265625,4246.9228515625,4051.2819824219,4082.8205566406,4151.7949218750,4072.3076171875,4102.4360351563,4062.6923828125,4100.7690429688,4104.6152343750,4110.5126953125,4105.0000000000,4096.1538085938,4070.5129394531,,,
2.3750000000,9,4104.8715820313,4242.5639648438,4056.1538085938,4093.7180175781,4152.0512695313,4080.3845214844,4102.3076171875,4070.5129394531,4106.7949218750,4104.4873046875,4119.1025390625,4108.3334960938,4095.6411132813,4074.6154785156,,,
2.3828125000,9,4102.0512695313,4235.1284179688,4059.1025390625,4094.4870605469,4152.5639648438,4093.2050781250,4101.2822265625,4074.7436523438,4104.3588867188,4104.4873046875,4123.2050781250,4109.1025390625,4091.7949218750,4072.5642089844,,,
2.3906250000,9,4099.3588867188,4229.6152343750,4060.0000000000,4089.7436523438,4152.9487304688,4107.8203125000,4100.3847656250,4076.0256347656,4096.4101562500,4104.6152343750,4124.6152343750,4108.2050781250,4089.2307128906,4066.4101562500,,,
2.3984375000,9,4098.2050781250,4227.8203125000,4060.7692871094,4089.3588867188,4153.2050781250,4120.0000000000,4100.1284179688,4077.6923828125,4090.6411132813,4104.6152343750,4125.5126953125,4107.6923828125,4089.4870605469,4060.2563476563,,,
2.4062500000,9,4098.7177734375,4228.7177734375,4062.4357910156,4097.8203125000,4153.3334960938,4124.7436523438,4100.7690429688,4081.1538085938,4092.6923828125,4104.4873046875,4125.8974609375,4108.7177734375,4090.1281738281,4057.4357910156,,,
2.4140625000,9,4099.8715820313,4230.6411132813,4063.7180175781,4109.3588867188,4153.4614257813,4118.7177734375,4101.5385742188,4082.8205566406,4100.6411132813,4104.6152343750,4124.2309570313,4109.4873046875,4087.9487304688,4058.2050781250,,,
2.4218750000,9,4100.0000000000,4231.6665039063,4062.5642089844,4113.4614257813,4153.3334960938,4102.1796875000,4102.1796875000,4078.4614257813,4107.8203125000,4104.6152343750,4119.6152343750,4107.5639648438,4082.3076171875,4060.1281738281,,,
2.4296875000,9,4098.8461914063,4229.1025390625,4058.7180175781,4105.1284179688,4152.8203125000,4081.0256347656,4102.6923828125,4068.0769042969,4108.2050781250,4104.6152343750,4113.2050781250,4103.0771484375,4075.7692871094,4060.7692871094,,,
2.4375000000,9,4096.9228515625,4221.0258789063,4054.4870605469,4088.8461914063,4152.0512695313,4064.7436523438,4103.3334960938,4057.8205566406,4101.7949218750,4104.4873046875,4106.7949218750,4097.9487304688,4071.9230957031,4058.4614257813,,,
2.4453125000,9,4095.2563476563,4209.7436523438,4052.4357910156,4074.7436523438,4151.6665039063,4059.6154785156,4103.5898437500,4054.2307128906,4093.9743652344,4104.6152343750,4100.7690429688,4094.3588867188,4072.6923828125,4053.9743652344,,,
2.4531250000,9,4095.0000000000,4201.1538085938,4053.7180175781,4070.0000000000,4151.9228515625,4065.0000000000,4103.0771484375,4058.9743652344,4090.2563476563,4104.6152343750,4095.2563476563,4092.5642089844,4077.1794433594,4049.4870605469,,,
2.4609375000,9,4097.1796875000,4200.8974609375,4057.5642089844,4075.1281738281,4152.8203125000,4073.3332519531,4101.9228515625,4066.5385742188,4091.9230957031,4104.6152343750,4091.6667480469,4091.9230957031,4081.9230957031,4047.8205566406,,,
2.4687500000,9,4101.7949218750,4210.2563476563,4062.3076171875,4084.8718261719,4153.5898437500,4077.9487304688,4101.2822265625,4069.8718261719,4095.3845214844,4104.4873046875,4093.2050781250,4092.0512695313,4084.8718261719,4050.5129394531,,,
2.4765625000,9,4106.9228515625,4225.3847656250,4065.7692871094,4093.5898437500,4153.7177734375,4077.8205566406,4101.4101562500,4065.5129394531,4095.5129394531,4104.6152343750,4100.8974609375,4093.4614257813,4086.4101562500,4056.6667480469,,,
2.4843750000,9,4109.2309570313,4241.1538085938,4066.9230957031,4098.7177734375,4153.3334960938,4077.9487304688,4101.6665039063,4055.7692871094,4089.1025390625,4104.6152343750,4111.5385742188,4096.4101562500,4088.4614257813,4064.1025390625,,,
2.4921875000,9,4107.3076171875,4252.1796875000,4067.1794433594,4101.9228515625,4152.4360351563,4082.8205566406,4101.2822265625,4046.9230957031,4078.3332519531,4104.4873046875,4120.0000000000,4100.2563476563,4091.4101562500,4070.2563476563,,,
2.5000000000,10,4104.1025390625,4254.8715820313,4068.8461914063,4105.8974609375,4151.5385742188,4092.5642089844,4100.6411132813,4045.2563476563,4069.6154785156,4104.4873046875,4122.8203125000,4104.1025390625,4093.3332519531,4074.2307128906,,,
2.5078125000,10,4103.7177734375,4249.3588867188,4072.5642089844,4110.1284179688,4151.5385742188,4103.4614257813,4100.1284179688,4052.6923828125,4069.6154785156,4104.6152343750,4120.0000000000,4106.9228515625,4091.4101562500,4075.7692871094,,,
2.5156250000,10,4108.4614257813,4239.6152343750,4076.7949218750,4112.0512695313,4152.3076171875,4111.0258789063,4100.1284179688,4066.1538085938,4079.6154785156,4104.6152343750,4114.8715820313,4108.5898437500,4086.0256347656,4075.1281738281,,,
2.5234375000,10,4116.2822265625,4231.6665039063,4079.3588867188,4111.2822265625,4153.0771484375,4113.8461914063,4100.2563476563,4079.3588867188,4093.9743652344,4104.4873046875,4111.1538085938,4109.3588867188,4080.7692871094,4073.9743652344,,,
2.5312500000,10,4122.4360351563,4229.8715820313,4079.8718261719,4111.7949218750,4152.9487304688,4113.4614257813,4100.0000000000,4087.0512695313,4104.8715820313,4104.6152343750,4110.7690429688,4110.2563476563,4080.6411132813,4073.7180175781,,,
2.5390625000,10,4123.0771484375,4234.3588867188,4078.5898437500,4117.8203125000,4151.4101562500,4111.0258789063,4099.4873046875,4087.8205566406,4107.5639648438,4104.6152343750,4112.3076171875,4111.2822265625,4086.7949218750,4074.8718261719,,,
2.5468750000,10,4118.4614257813,4241.7949218750,4076.7949218750,4126.9228515625,4149.7436523438,4107.0512695313,4099.3588867188,4083.4614257813,4103.0771484375,4104.6152343750,4113.0771484375,4111.5385742188,4096.1538085938,4076.6667480469,,,
2.5546875000,10,4112.5639648438,4248.3334960938,4075.2563476563,4131.2822265625,4149.6152343750,4103.5898437500,4099.7436523438,4077.9487304688,4096.5385742188,4104.4873046875,4113.3334960938,4111.5385742188,4104.1025390625,4078.7180175781,,,
2.5625000000,10,4110.5126953125,4251.2822265625,4075.1281738281,4125.8974609375,4151.9228515625,4104.4873046875,4100.5126953125,4075.5129394531,4092.9487304688,4104.6152343750,4116.1538085938,4112.9487304688,4108.2050781250,4080.8974609375,,,
2.5703125000,10,4114.4873046875,4249.3588867188,4078.2050781250,4115.1284179688,4154.2309570313,4111.6665039063,4100.3847656250,4077.5642089844,4095.0000000000,4104.6152343750,4124.2309570313,4117.5639648438,4109.1025390625,4083.7180175781,,,
2.5781250000,10,4122.5639648438,4242.4360351563,4084.7436523438,4110.0000000000,4153.4614257813,4121.4101562500,4098.4614257813,4082.0512695313,4101.6665039063,4104.6152343750,4134.8715820313,4125.5126953125,4108.8461914063,4086.7949218750,,,
2.5859375000,10,4129.7436523438,4233.0771484375,4092.6923828125,4116.6665039063,4148.2050781250,4125.8974609375,4095.1281738281,4084.1025390625,4108.8461914063,4104.4873046875,4141.7949218750,4133.4614257813,4109.7436523438,4089.7436523438,,,
2.5937500000,10,4132.0512695313,4226.4101562500,4097.8203125000,4128.8461914063,4140.8974609375,4118.5898437500,4092.4357910156,4080.5129394531,4112.1796875000,4104.6152343750,4140.3847656250,4136.9228515625,4112.9487304688,4091.9230957031,,,
2.6015625000,10,4128.5898437500,4227.0512695313,4096.9228515625,4133.7177734375,4136.0258789063,4100.8974609375,4092.0512695313,4072.3076171875,4109.7436523438,4104.6152343750,4132.6923828125,4133.4614257813,4117.8203125000,4092.8205566406,,,
2.6093750000,10,4122.5639648438,4236.1538085938,4090.0000000000,4124.8715820313,4136.1538085938,4082.8205566406,4093.9743652344,4064.8718261719,4104.3588867188,4104.4873046875,4125.8974609375,4125.6411132813,4122.0512695313,4092.9487304688,,,
2.6171875000,10,4118.4614257813,4248.4614257813,4081.7949218750,4109.7436523438,4140.3847656250,4075.2563476563,4097.3076171875,4063.7180175781,4100.1284179688,4104.4873046875,4127.1796875000,4119.7436523438,4124.1025390625,4093.3332519531,,,
2.6250000000,10,4119.2309570313,4256.2822265625,4077.0512695313,4102.0512695313,4144.8715820313,4081.6667480469,4100.1284179688,4069.4870605469,4099.2309570313,4104.6152343750,4136.5385742188,4120.0000000000,4122.9487304688,4094.3588867188,,,
2.6328125000,10,4123.0771484375,4255.1284179688,4077.3076171875,4108.5898437500,4146.1538085938,4094.7436523438,4101.5385742188,4076.9230957031,4100.1284179688,4104.6152343750,4145.7690429688,4125.2563476563,4118.7177734375,4094.7436523438,,,
2.6406250000,10,4125.6411132813,4246.7949218750,4079.1025390625,4123.0771484375,4143.2050781250,4103.3334960938,4101.0258789063,4079.2307128906,4099.4873046875,4104.4873046875,4145.2563476563,4129.1025390625,4111.6665039063,4092.4357910156,,,
2.6484375000,10,4123.8461914063,4236.9228515625,4078.0769042969,4132.9487304688,4138.4614257813,4102.0512695313,4099.2309570313,4073.8461914063,4094.7436523438,4104.6152343750,4133.2050781250,4126.4101562500,4102.9487304688,4087.1794433594,,,
2.6562500000,10,4118.5898437500,4230.3847656250,4073.4614257813,4132.8203125000,4135.3847656250,4094.4870605469,4096.9228515625,4064.6154785156,4086.1538085938,4104.6152343750,4117.5639648438,4117.6923828125,4095.8974609375,4080.8974609375,,,
2.6640625000,10,4114.4873046875,4229.2309570313,4068.8461914063,4127.4360351563,4135.3847656250,4089.3588867188,4095.2563476563,4058.0769042969,4077.5642089844,4104.6152343750,4110.0000000000,4109.1025390625,4095.3845214844,4077.1794433594,,,
2.6718750000,10,4116.4101562500,4232.0512695313,4069.8718261719,4125.5126953125,4137.3076171875,4093.7180175781,4094.7436523438,4059.2307128906,4073.9743652344,4104.4873046875,4117.6923828125,4108.3334960938,4103.9741210938,4079.1025390625,,,
2.6796875000,10,4124.7436523438,4236.1538085938,4079.1025390625,4129.4873046875,4138.8461914063,4108.3334960938,4095.7692871094,4069.1025390625,4079.7436523438,4104.6152343750,4137.1796875000,4118.8461914063,4119.2309570313,4087.6923828125,,,
2.6875000000,10,4134.4873046875,4239.2309570313,4091.5385742188,4132.5639648438,4138.5898437500,4125.7690429688,4097.9487304688,4083.2050781250,4093.3332519531,4104.6152343750,4155.5126953125,4135.3847656250,4132.9487304688,4099.4873046875,,,
2.6953125000,10,4137.0512695313,4238.9741210938,4096.4101562500,4126.0258789063,4136.6665039063,4134.6152343750,4099.8715820313,4092.6923828125,4106.2822265625,4104.6152343750,4157.9487304688,4146.2822265625,4136.2822265625,4107.0512695313,,,
2.7031250000,10,4127.8203125000,4235.0000000000,4086.7949218750,4110.6411132813,4134.4873046875,4128.0771484375,4100.0000000000,4090.8974609375,4108.5898437500,4104.4873046875,4140.1284179688,4142.5639648438,4125.7690429688,4105.0000000000,,,
2.7109375000,10,4111.7949218750,4229.2309570313,4067.6923828125,4098.9741210938,4133.5898437500,4110.8974609375,4098.7177734375,4079.3588867188,4099.7436523438,4104.6152343750,4113.0771484375,4127.4360351563,4108.3334960938,4095.8974609375,,,
2.7187500000,10,4100.5126953125,4225.8974609375,4053.0769042969,4104.8715820313,4134.6152343750,4095.2563476563,4097.0512695313,4068.8461914063,4090.5129394531,4104.6152343750,4095.3845214844,4113.9741210938,4096.6665039063,4088.8461914063,,,
2.7265625000,10,4102.0512695313,4228.0771484375,4054.2307128906,4127.4360351563,4136.7949218750,4092.1794433594,4096.2822265625,4069.8718261719,4094.8718261719,4104.4873046875,4098.8461914063,4114.3588867188,4099.3588867188,4091.5385742188,,,
2.7343750000,10,4114.4873046875,4235.1284179688,4069.4870605469,4148.5898437500,4138.0771484375,4102.3076171875,4095.8974609375,4084.7436523438,4115.8974609375,4104.4873046875,4119.3588867188,4129.1025390625,4113.8461914063,4103.0771484375,,,
2.7421875000,10,4128.0771484375,4243.3334960938,4086.6667480469,4148.9741210938,4137.1796875000,4116.5385742188,4095.5129394531,4105.2563476563,4142.9487304688,4104.6152343750,4141.6665039063,4147.4360351563,4128.7177734375,4114.8715820313,,,
2.7500000000,11,4133.9741210938,4247.9487304688,4093.4614257813,4126.9228515625,4133.8461914063,4122.9487304688,4095.2563476563,4119.8715820313,4160.1284179688,4104.6152343750,4152.0512695313,4157.1796875000,4132.5639648438,4119.2309570313,,,
2.7578125000,11,4132.3076171875,4245.8974609375,4087.0512695313,4100.8974609375,4129.6152343750,4115.7690429688,4095.6411132813,4121.1538085938,4158.3334960938,4104.4873046875,4147.0512695313,4153.4614257813,4123.2050781250,4115.1284179688,,,
2.7656250000,11,4130.5126953125,4236.5385742188,4075.1281738281,4093.0769042969,4126.1538085938,4099.2309570313,4096.9228515625,4109.3588867188,4140.3847656250,4104.6152343750,4134.1025390625,4141.5385742188,4108.4614257813,4108.9741210938,,,
2.7734375000,11,4136.0258789063,4221.6665039063,4067.6923828125,4109.2309570313,4124.4873046875,4083.9743652344,4098.3334960938,4090.3845214844,4116.1538085938,4104.6152343750,4123.8461914063,4131.0258789063,4098.8461914063,4108.2050781250,,,
2.7812500000,11,4148.8461914063,4206.4101562500,4069.4870605469,4135.1284179688,4124.3588867188,4078.2050781250,4099.1025390625,4071.6667480469,4094.3588867188,4104.6152343750,4121.0258789063,4127.6923828125,4098.8461914063,4114.4873046875,,,
2.7890625000,11,4161.9228515625,4196.7949218750,4076.9230957031,4150.6411132813,4124.4873046875,4082.8205566406,4098.8461914063,4058.4614257813,4078.2050781250,4104.4873046875,4123.2050781250,4130.6411132813,4104.3588867188,4123.2050781250,,,
2.7968750000,11,4167.4360351563,4196.5385742188,4083.2050781250,4147.5639648438,4123.7177734375,4091.5385742188,4098.0771484375,4053.5898437500,4067.5642089844,4104.6152343750,4124.8715820313,4134.3588867188,4106.5385742188,4127.6923828125,,,
2.8046875000,11,4163.9741210938,4203.7177734375,4084.1025390625,4132.9487304688,4121.9228515625,4096.6665039063,4097.3076171875,4055.6411132813,4061.7949218750,4104.6152343750,4122.4360351563,4133.7177734375,4099.3588867188,4124.2309570313,,,
2.8125000000,11,4156.5385742188,4213.3334960938,4081.0256347656,4119.3588867188,4119.7436523438,4094.6154785156,4097.0512695313,4059.6154785156,4060.2563476563,4104.6152343750,4115.5126953125,4128.3334960938,4084.4870605469,4114.3588867188,,,
2.8203125000,11,4152.3076171875,4219.7436523438,4078.3332519531,4113.7177734375,4118.3334960938,4088.4614257813,4097.1796875000,4060.2563476563,4061.2819824219,4104.4873046875,4105.2563476563,4121.9228515625,4068.8461914063,4103.5898437500,,,
2.8281250000,11,4154.8715820313,4220.8974609375,4080.1281738281,4115.0000000000,4117.6923828125,4084.6154785156,4097.0512695313,4057.0512695313,4063.8461914063,4104.6152343750,4094.4870605469,4118.9741210938,4058.7180175781,4097.4360351563,,,
2.8359375000,11,4161.4101562500,4218.3334960938,4086.0256347656,4120.6411132813,4117.6923828125,4084.8718261719,4096.2822265625,4055.8974609375,4069.3588867188,4104.6152343750,4086.7949218750,4121.4101562500,4055.7692871094,4097.6923828125,,,
2.8437500000,11,4165.7690429688,4215.1284179688,4092.3076171875,4129.6152343750,4117.4360351563,4085.7692871094,4095.2563476563,4063.7180175781,4081.5385742188,4104.4873046875,4085.6411132813,4126.7949218750,4056.5385742188,4101.5385742188,,,
2.8515625000,11,4164.3588867188,4214.8715820313,4095.7692871094,4140.3847656250,4116.2822265625,4083.5898437500,4094.6154785156,4082.3076171875,4102.3076171875,4104.4873046875,4092.4357910156,4131.9228515625,4057.3076171875,4104.2309570313,,,
2.8593750000,11,4159.6152343750,4218.8461914063,4097.1796875000,4148.4614257813,4113.9741210938,4081.1538085938,4095.7692871094,4105.2563476563,4127.9487304688,4104.6152343750,4105.3847656250,4136.4101562500,4057.4357910156,4103.8461914063,,,
2.8671875000,11,4156.2822265625,4225.2563476563,4098.5898437500,4146.9228515625,4111.1538085938,4084.6154785156,4098.7177734375,4120.2563476563,4146.5385742188,4104.6152343750,4117.5639648438,4140.8974609375,4057.1794433594,4101.2822265625,,,
2.8750000000,11,4155.5126953125,4229.2309570313,4098.7177734375,4132.4360351563,4109.3588867188,4094.6154785156,4101.9228515625,4115.1284179688,4143.7177734375,4104.4873046875,4119.6152343750,4143.4614257813,4055.6411132813,4096.9228515625,,,
2.8828125000,11,4155.5126953125,4227.8203125000,4093.8461914063,4111.1538085938,4108.7177734375,4104.2309570313,4103.4614257813,4087.3076171875,4114.2309570313,4104.6152343750,4106.9228515625,4140.3847656250,4050.7692871094,4090.5129394531,,,
2.8906250000,11,4154.1025390625,4222.5639648438,4084.1025390625,4096.9228515625,4108.4614257813,4105.6411132813,4102.8203125000,4049.2307128906,4071.2819824219,4104.6152343750,4085.8974609375,4130.6411132813,4043.8461914063,4084.1025390625,,,
2.8984375000,11,4152.4360351563,4218.0771484375,4075.0000000000,4100.2563476563,4107.6923828125,4098.2050781250,4101.5385742188,4022.1794433594,4039.1025390625,4104.6152343750,4070.3845214844,4119.2309570313,4039.2307128906,4081.0256347656,,,
2.9062500000,11,4151.5385742188,4215.8974609375,4072.6923828125,4117.5639648438,4106.1538085938,4088.4614257813,4101.1538085938,4020.1281738281,4034.1025390625,4104.4873046875,4069.3588867188,4112.3076171875,4040.0000000000,4082.1794433594,,,
2.9140625000,11,4150.3847656250,4213.3334960938,4077.0512695313,4131.9228515625,4104.4873046875,4084.3588867188,4101.7949218750,4039.4870605469,4052.8205566406,4104.6152343750,4080.0000000000,4111.9228515625,4044.1025390625,4084.4870605469,,,
2.9218750000,11,4148.7177734375,4208.7177734375,4082.8205566406,4128.5898437500,4102.6923828125,4089.6154785156,4101.6665039063,4064.2307128906,4078.5898437500,4104.6152343750,4092.1794433594,4116.9228515625,4049.2307128906,4084.4870605469,,,
2.9296875000,11,4150.2563476563,4207.0512695313,4087.9487304688,4111.7949218750,4101.0258789063,4103.8461914063,4099.1025390625,4082.4357910156,4099.2309570313,4104.6152343750,4101.4101562500,4127.4360351563,4057.1794433594,4085.6411132813,,,
2.9375000000,11,4161.7949218750,4217.4360351563,4098.0771484375,4105.3847656250,4099.7436523438,4125.0000000000,4095.3845214844,4095.6411132813,4117.5639648438,4104.4873046875,4113.7177734375,4147.0512695313,4074.4870605469,4097.4360351563,,,
2.9453125000,11,4189.1025390625,4244.2309570313,4121.7949218750,4132.9487304688,4099.4873046875,4150.2563476563,4093.0769042969,4114.8715820313,4144.3588867188,4104.6152343750,4139.1025390625,4179.7436523438,4105.7690429688,4127.9487304688,,,
2.9531250000,11,4229.6152343750,4282.3076171875,4161.4101562500,4195.1284179688,4100.1284179688,4176.7949218750,4093.8461914063,4146.9228515625,4184.7436523438,4104.6152343750,4180.3847656250,4224.2309570313,4148.4614257813,4175.5126953125,,,
2.9609375000,11,4271.7949218750,4317.9487304688,4207.4360351563,4264.7436523438,4100.5126953125,4201.6665039063,4096.6665039063,4186.7949218750,4229.6152343750,4104.4873046875,4228.0771484375,4270.8974609375,4192.6923828125,4226.4101562500,,,
2.9687500000,11,4300.3847656250,4338.3334960938,4242.8203125000,4305.5126953125,4099.6152343750,4221.6665039063,4099.2309570313,4220.0000000000,4262.0512695313,4104.4873046875,4266.4101562500,4306.1538085938,4226.1538085938,4262.6923828125,,,
2.9765625000,11,4305.5126953125,4337.4360351563,4253.8461914063,4300.8974609375,4096.7949218750,4234.2309570313,4099.6152343750,4234.7436523438,4270.7690429688,4104.6152343750,4285.0000000000,4319.7436523438,4240.8974609375,4273.3334960938,,,
2.9843750000,11,4290.2563476563,4320.7690429688,4240.7690429688,4265.5126953125,4092.8205566406,4238.5898437500,4097.8203125000,4231.1538085938,4260.2563476563,4104.6152343750,4285.8974609375,4312.1796875000,4238.0771484375,4261.6665039063,,,
2.9921875000,11,4269.4873046875,4301.1538085938,4218.2050781250,4233.3334960938,4089.1025390625,4236.7949218750,4095.1281738281,4220.3847656250,4247.5639648438,4104.4873046875,4280.5126953125,4295.3847656250,4227.6923828125,4243.4614257813,,,
3.0000000000,12,4260.6411132813,4291.5385742188,4205.3847656250,4231.0258789063,4086.6667480469,4234.1025390625,4092.9487304688,4215.1284179688,4248.3334960938,4104.6152343750,4279.7436523438,4285.6411132813,4221.9228515625,4235.1284179688,,,
3.0078125000,12,4269.8715820313,4295.5126953125,4211.9228515625,4258.5898437500,4085.7692871094,4235.2563476563,4092.6923828125,4220.1284179688,4263.5898437500,4104.6152343750,4285.6411132813,4290.6411132813,4226.1538085938,4242.5639648438,,,
3.0156250000,12,4286.5385742188,4304.3588867188,4228.0771484375,4290.0000000000,4085.7692871094,4239.1025390625,4094.4870605469,4227.8203125000,4279.7436523438,4104.6152343750,4288.0771484375,4302.9487304688,4233.3334960938,4255.7690429688,,,
3.0234375000,12,4290.0000000000,4303.2050781250,4231.9228515625,4292.9487304688,4086.0256347656,4237.1796875000,4097.4360351563,4225.2563476563,4279.7436523438,4104.4873046875,4274.2309570313,4304.2309570313,4229.6152343750,4256.4101562500,,,
3.0312500000,12,4267.3076171875,4282.1796875000,4208.3334960938,4254.4873046875,4086.2819824219,4220.8974609375,4100.0000000000,4204.6152343750,4257.1796875000,4104.6152343750,4240.3847656250,4281.5385742188,4206.1538085938,4233.5898437500,,,
3.0390625000,12,4223.9741210938,4245.2563476563,4162.5639648438,4191.4101562500,4085.8974609375,4190.5126953125,4101.0258789063,4169.8715820313,4221.1538085938,4104.6152343750,4197.4360351563,4239.1025390625,4168.0771484375,4192.6923828125,,,
3.0468750000,12,4181.0258789063,4207.9487304688,4117.1796875000,4138.8461914063,4084.7436523438,4157.8203125000,4100.1284179688,4135.6411132813,4189.7436523438,4104.6152343750,4164.1025390625,4196.1538085938,4132.4360351563,4152.0512695313,,,
3.0546875000,12,4160.1284179688,4187.6923828125,4095.7692871094,4124.6152343750,4082.4357910156,4138.2050781250,4098.0771484375,4116.9228515625,4176.5385742188,4104.4873046875,4153.7177734375,4173.4614257813,4115.8974609375,4130.1284179688,,,
3.0625000000,12,4169.6152343750,4193.5898437500,4107.0512695313,4150.7690429688,4079.8718261719,4140.2563476563,4096.5385742188,4120.5126953125,4184.1025390625,4104.6152343750,4168.0771484375,4180.2563476563,4125.1284179688,4135.5126953125,,,
3.0703125000,12,4200.8974609375,4222.0512695313,4141.0258789063,4195.2563476563,4077.6923828125,4160.1284179688,4096.4101562500,4142.0512695313,4205.0000000000,4104.6152343750,4198.4614257813,4210.5126953125,4154.6152343750,4163.9741210938,,,
3.0781250000,12,4235.3847656250,4258.3334960938,4178.0771484375,4229.6152343750,4076.7949218750,4185.8974609375,4097.3076171875,4169.7436523438,4227.3076171875,4104.4873046875,4232.4360351563,4248.3334960938,4190.1284179688,4201.5385742188,,,
3.0859375000,12,4256.2822265625,4284.1025390625,4201.9228515625,4239.3588867188,4077.0512695313,4206.7949218750,4097.1796875000,4191.4101562500,4241.0258789063,4104.4873046875,4258.9741210938,4277.4360351563,4217.5639648438,4231.6665039063,,,
3.0937500000,12,4258.9741210938,4288.8461914063,4207.8203125000,4232.3076171875,4077.8205566406,4218.7177734375,4095.3845214844,4201.5385742188,4242.4360351563,4104.6152343750,4272.8203125000,4290.1284179688,4229.1025390625,4244.7436523438,,,
3.1015625000,12,4251.0258789063,4275.8974609375,4201.7949218750,4227.3076171875,4077.9487304688,4223.9741210938,4092.9487304688,4201.9228515625,4236.0258789063,4104.6152343750,4274.3588867188,4288.3334960938,4226.6665039063,4241.4101562500,,,
3.1093750000,12,4242.6923828125,4258.4614257813,4192.6923828125,4234.3588867188,4077.0512695313,4225.3847656250,4091.6667480469,4198.0771484375,4229.7436523438,4104.4873046875,4266.7949218750,4278.4614257813,4217.4360351563,4229.8715820313,,,
3.1171875000,12,4237.1796875000,4248.9741210938,4183.5898437500,4245.1284179688,4075.5129394531,4221.2822265625,4091.9230957031,4192.1796875000,4227.1796875000,4104.6152343750,4252.0512695313,4265.2563476563,4206.4101562500,4216.9228515625,,,
3.1250000000,12,4230.7690429688,4249.3588867188,4171.6665039063,4242.0512695313,4074.3588867188,4205.7690429688,4093.8461914063,4181.5385742188,4224.1025390625,4104.6152343750,4230.7690429688,4248.7177734375,4192.8203125000,4203.3334960938,,,
3.1328125000,12,4219.6152343750,4252.1796875000,4154.8715820313,4216.5385742188,4074.1025390625,4176.1538085938,4096.7949218750,4163.7177734375,4213.5898437500,4104.6152343750,4204.8715820313,4229.3588867188,4174.4873046875,4186.5385742188,,,
3.1406250000,12,4206.9228515625,4249.7436523438,4137.5639648438,4179.7436523438,4074.3588867188,4138.9741210938,4099.7436523438,4141.7949218750,4194.4873046875,4104.4873046875,4180.0000000000,4210.8974609375,4154.1025390625,4167.6923828125,,,
3.1484375000,12,4201.1538085938,4241.0258789063,4129.1025390625,4153.8461914063,4074.6154785156,4108.7177734375,4101.7949218750,4124.2309570313,4174.1025390625,4104.6152343750,4163.8461914063,4199.7436523438,4138.2050781250,4153.3334960938,,,
3.1562500000,12,4207.8203125000,4231.9228515625,4135.1284179688,4153.9741210938,4074.2307128906,4097.6923828125,4102.4360351563,4118.4614257813,4162.1796875000,4104.6152343750,4159.6152343750,4199.3588867188,4132.0512695313,4149.7436523438,,,
3.1640625000,12,4223.0771484375,4228.7177734375,4151.1538085938,4174.3588867188,4073.4614257813,4107.1796875000,4102.1796875000,4124.2309570313,4162.0512695313,4104.6152343750,4162.6923828125,4206.6665039063,4132.6923828125,4157.9487304688,,,
3.1718750000,12,4236.1538085938,4233.4614257813,4164.8715820313,4192.1796875000,4073.0769042969,4126.0258789063,4101.9228515625,4133.4614257813,4167.3076171875,4104.4873046875,4164.6152343750,4214.7436523438,4133.2050781250,4171.7949218750,,,
3.1796875000,12,4238.7177734375,4242.8203125000,4167.5639648438,4188.3334960938,4073.3332519531,4139.6152343750,4102.5639648438,4137.8203125000,4169.3588867188,4104.6152343750,4161.0258789063,4218.5898437500,4129.1025390625,4183.0771484375,,,
3.1875000000,12,4231.4101562500,4252.5639648438,4160.7690429688,4167.6923828125,4074.3588867188,4141.1538085938,4104.2309570313,4135.6411132813,4165.1284179688,4104.6152343750,4156.4101562500,4218.8461914063,4123.3334960938,4187.4360351563,,,
3.1953125000,12,4223.7177734375,4260.6411132813,4155.6411132813,4157.4360351563,4075.8974609375,4136.5385742188,4106.5385742188,4132.5639648438,4160.3847656250,4104.4873046875,4159.4873046875,4220.2563476563,4123.0771484375,4186.1538085938,,,
3.2031250000,12,4225.3847656250,4268.0771484375,4163.0771484375,4182.1796875000,4077.3076171875,4137.9487304688,4108.4614257813,4136.0258789063,4162.6923828125,4104.4873046875,4174.8715820313,4227.6923828125,4133.5898437500,4186.1538085938,,,
3.2109375000,12,4240.0000000000,4276.7949218750,4184.8715820313,4238.9741210938,4077.3076171875,4152.5639648438,4109.3588867188,4149.2309570313,4176.0258789063,4104.6152343750,4199.3588867188,4242.3076171875,4153.5898437500,4194.1025390625,,,
3.2187500000,12,4261.6665039063,4285.3847656250,4212.0512695313,4295.1284179688,4075.8974609375,4176.4101562500,4109.4873046875,4168.9741210938,4197.5639648438,4104.6152343750,4223.9741210938,4260.3847656250,4176.2822265625,4210.6411132813,,,
3.2265625000,12,4278.8461914063,4289.6152343750,4231.0258789063,4312.3076171875,4074.1025390625,4198.4614257813,4109.8715820313,4187.9487304688,4219.7436523438,4104.4873046875,4238.9741210938,4275.0000000000,4193.2050781250,4227.5639648438,,,
3.2343750000,12,4281.5385742188,4284.4873046875,4231.9228515625,4275.7690429688,4073.4614257813,4209.2309570313,4111.2822265625,4198.4614257813,4233.0771484375,4104.6152343750,4237.9487304688,4279.2309570313,4198.5898437500,4233.0771484375,,,
3.2421875000,12,4268.7177734375,4268.8461914063,4215.5126953125,4207.3076171875,4073.9743652344,4207.4360351563,4112.9487304688,4197.4360351563,4232.4360351563,4104.7436523438,4222.6923828125,4271.7949218750,4192.0512695313,4222.1796875000,,,
3.2500000000,13,4248.5898437500,4247.6923828125,4192.4360351563,4148.7177734375,4074.7436523438,4198.2050781250,4114.2309570313,4188.5898437500,4221.1538085938,4104.8715820313,4202.6923828125,4257.5639648438,4178.4614257813,4201.9228515625,,,
3.2578125000,13,4232.5639648438,4230.2563476563,4176.1538085938,4131.2822265625,4075.0000000000,4187.8203125000,4114.1025390625,4180.2563476563,4210.6411132813,4105.0000000000,4190.0000000000,4244.6152343750,4166.6665039063,4185.8974609375,,,
3.2656250000,13,4226.5385742188,4224.3588867188,4173.2050781250,4154.6152343750,4075.0000000000,4180.3847656250,4112.0512695313,4179.2309570313,4211.4101562500,4104.6152343750,4190.7690429688,4237.6923828125,4163.8461914063,4183.5898437500,,,
3.2734375000,13,4228.8461914063,4230.1284179688,4180.3847656250,4192.1796875000,4074.6154785156,4177.1796875000,4108.3334960938,4185.7690429688,4222.9487304688,4104.1025390625,4202.5639648438,4234.8715820313,4170.3847656250,4193.3334960938,,,
3.2812500000,13,4232.6923828125,4240.6411132813,4188.5898437500,4214.8715820313,4073.3332519531,4176.7949218750,4104.6152343750,4193.5898437500,4234.1025390625,4103.8461914063,4216.6665039063,4230.7690429688,4180.3847656250,4204.8715820313,,,
3.2890625000,13,4232.4360351563,4246.7949218750,4190.8974609375,4213.7177734375,4071.2819824219,4176.6665039063,4102.8203125000,4196.5385742188,4233.9741210938,4104.4873046875,4224.4873046875,4221.1538085938,4185.8974609375,4208.3334960938,,,
3.2968750000,13,4227.6923828125,4245.2563476563,4186.7949218750,4201.1538085938,4069.4870605469,4173.8461914063,4103.7177734375,4193.8461914063,4222.3076171875,4105.5126953125,4221.4101562500,4207.6923828125,4183.3334960938,4201.5385742188,,,
3.3046875000,13,4221.2822265625,4238.7177734375,4180.2563476563,4194.6152343750,4069.4870605469,4166.0258789063,4105.8974609375,4188.9741210938,4208.7177734375,4105.8974609375,4208.0771484375,4194.7436523438,4174.3588867188,4189.6152343750,,,
3.3125000000,13,4214.3588867188,4230.3847656250,4173.4614257813,4198.2050781250,4071.1538085938,4152.8203125000,4107.1796875000,4184.6152343750,4200.7690429688,4104.4873046875,4188.0771484375,4184.7436523438,4162.0512695313,4177.1796875000,,,
3.3203125000,13,4203.9741210938,4219.7436523438,4164.2309570313,4199.3588867188,4072.9487304688,4136.2822265625,4106.6665039063,4177.8203125000,4195.7690429688,4101.5385742188,4165.5126953125,4174.2309570313,4146.4101562500,4163.0771484375,,,
3.3281250000,13,4186.9228515625,4204.7436523438,4150.0000000000,4183.8461914063,4073.0769042969,4120.7690429688,4105.2563476563,4164.4873046875,4185.6411132813,4098.7177734375,4144.7436523438,4158.8461914063,4126.7949218750,4143.9741210938,,,
3.3359375000,13,4167.6923828125,4189.3588867188,4134.7436523438,4152.8203125000,4071.1538085938,4113.3334960938,4104.2309570313,4146.5385742188,4169.1025390625,4097.6923828125,4131.9228515625,4140.6411132813,4108.3334960938,4122.9487304688,,,
3.3437500000,13,4160.2563476563,4185.8974609375,4130.3847656250,4126.1538085938,4068.9743652344,4121.2822265625,4104.6152343750,4135.2563476563,4157.6923828125,4099.2309570313,4136.0258789063,4131.7949218750,4104.4873046875,4113.4614257813,,,
3.3515625000,13,4178.8461914063,4206.9228515625,4149.8715820313,4129.2309570313,4068.4614257813,4148.5898437500,4105.8974609375,4145.3847656250,4168.7177734375,4102.0512695313,4163.8461914063,4148.4614257813,4129.3588867188,4132.1796875000,,,
3.3593750000,13,4227.1796875000,4253.4614257813,4197.0512695313,4173.8461914063,4070.3845214844,4191.7949218750,4106.6665039063,4183.4614257813,4211.6665039063,4104.4873046875,4215.6411132813,4197.1796875000,4187.3076171875,4185.8974609375,,,
3.3671875000,13,4292.1796875000,4309.8715820313,4260.8974609375,4248.5898437500,4073.9743652344,4240.5126953125,4106.2822265625,4240.8974609375,4278.3334960938,4105.2563476563,4280.5126953125,4267.1796875000,4264.3588867188,4261.4101562500,,,
3.3750000000,13,4350.7690429688,4353.7177734375,4319.8715820313,4324.2309570313,4077.4357910156,4281.9228515625,4105.3847656250,4297.4360351563,4345.8974609375,4104.3588867188,4340.2563476563,4334.3588867188,4334.4873046875,4331.1538085938,,,
3.3828125000,13,4383.7177734375,4370.3847656250,4354.4873046875,4371.9228515625,4079.6154785156,4307.8203125000,4105.3847656250,4333.2050781250,4390.6411132813,4103.0771484375,4378.3334960938,4375.8974609375,4374.7436523438,4370.0000000000,,,
3.3906250000,13,4387.5639648438,4362.4360351563,4358.3334960938,4380.8974609375,4080.2563476563,4317.8203125000,4106.1538085938,4340.7690429688,4403.3334960938,4102.5639648438,4389.4873046875,4385.0000000000,4379.1025390625,4373.2050781250,,,
3.3984375000,13,4375.1284179688,4345.1284179688,4342.0512695313,4364.7436523438,4080.0000000000,4317.6923828125,4106.6665039063,4329.2309570313,4393.9741210938,4103.2050781250,4381.9228515625,4373.4614257813,4361.5385742188,4357.1796875000,,,
3.4062500000,13,4364.6152343750,4333.5898437500,4324.6152343750,4347.5639648438,4079.7436523438,4315.1284179688,4106.2822265625,4315.5126953125,4383.2050781250,4104.1025390625,4371.1538085938,4362.1796875000,4344.8715820313,4345.3847656250,,,
3.4140625000,13,4366.4101562500,4333.0771484375,4320.2563476563,4345.6411132813,4079.7436523438,4315.3847656250,4106.1538085938,4313.0771484375,4385.7690429688,4104.2309570313,4368.5898437500,4365.8974609375,4344.8715820313,4351.0258789063,,,
3.4218750000,13,4378.2050781250,4338.2050781250,4329.8715820313,4358.2050781250,4079.3588867188,4320.1284179688,4106.6665039063,4322.6923828125,4401.2822265625,4103.7177734375,4375.0000000000,4384.3588867188,4361.6665039063,4370.1284179688,,,
3.4296875000,13,4391.1538085938,4341.1538085938,4343.9741210938,4374.4873046875,4077.9487304688,4327.4360351563,4107.4360351563,4336.5385742188,4418.0771484375,4103.5898437500,4384.6152343750,4406.4101562500,4383.7177734375,4388.9741210938,,,
3.4375000000,13,4398.3334960938,4337.9487304688,4353.2050781250,4385.3847656250,4075.8974609375,4333.7177734375,4106.7949218750,4347.0512695313,4426.2822265625,4104.3588867188,4392.8203125000,4420.7690429688,4399.4873046875,4397.5639648438,,,
3.4453125000,13,4400.2563476563,4330.8974609375,4355.8974609375,4389.8715820313,4075.5129394531,4335.2563476563,4104.6152343750,4352.4360351563,4425.3847656250,4105.3847656250,4399.6152343750,4424.2309570313,4404.7436523438,4396.6665039063,,,
3.4531250000,13,4401.0258789063,4323.9741210938,4356.4101562500,4391.0258789063,4078.2050781250,4330.7690429688,4101.7949218750,4354.1025390625,4420.5126953125,4105.6411132813,4406.5385742188,4421.6665039063,4402.9487304688,4394.1025390625,,,
3.4609375000,13,4403.8461914063,4318.9741210938,4358.4614257813,4391.7949218750,4083.3332519531,4322.0512695313,4100.2563476563,4352.8203125000,4413.5898437500,4104.1025390625,4413.3334960938,4419.3588867188,4399.1025390625,4395.5126953125,,,
3.4687500000,13,4407.6923828125,4314.2309570313,4361.7949218750,4392.8203125000,4087.9487304688,4312.9487304688,4101.1538085938,4347.1796875000,4403.8461914063,4101.5385742188,4416.6665039063,4419.7436523438,4395.7690429688,4400.1284179688,,,
3.4765625000,13,4409.6152343750,4308.0771484375,4362.1796875000,4393.4614257813,4089.4870605469,4307.8203125000,4103.7177734375,4337.6923828125,4391.9228515625,4099.1025390625,4412.8203125000,4421.0258789063,4393.3334960938,4402.5639648438,,,
3.4843750000,13,4408.7177734375,4302.5639648438,4357.0512695313,4392.6923828125,4087.9487304688,4308.0771484375,4106.4101562500,4327.8203125000,4382.8203125000,4097.9487304688,4402.4360351563,4420.1284179688,4392.1796875000,4400.2563476563,,,
3.4921875000,13,4406.5385742188,4301.0258789063,4347.0512695313,4389.1025390625,4085.6411132813,4312.1796875000,4107.3076171875,4322.3076171875,4381.4101562500,4097.9487304688,4390.1284179688,4415.2563476563,4392.5639648438,4394.3588867188,,,
3.5000000000,14,4405.2563476563,4304.2309570313,4336.6665039063,4381.5385742188,4084.8718261719,4316.1538085938,4106.6665039063,4322.3076171875,4386.5385742188,4098.5898437500,4381.7949218750,4407.9487304688,4392.8203125000,4388.0771484375,,,
3.5078125000,14,4406.4101562500,4308.4614257813,4331.4101562500,4372.4360351563,4086.9230957031,4317.0512695313,4105.8974609375,4326.1538085938,4393.0771484375,4099.3588867188,4381.1538085938,4401.1538085938,4391.4101562500,4383.9741210938,,,
3.5156250000,14,4410.8974609375,4309.7436523438,4334.7436523438,4367.5639648438,4090.5129394531,4315.5126953125,4106.2822265625,4331.0258789063,4396.1538085938,4099.7436523438,4387.5639648438,4398.4614257813,4388.8461914063,4382.8203125000,,,
3.5234375000,14,4417.8203125000,4308.5898437500,4345.1284179688,4371.6665039063,4093.4614257813,4314.1025390625,4107.8203125000,4336.1538085938,4395.5126953125,4099.4873046875,4397.4360351563,4401.4101562500,4388.4614257813,4385.3847656250,,,
3.5312500000,14,4423.7177734375,4309.1025390625,4355.5126953125,4382.6923828125,4093.9743652344,4314.4873046875,4109.4873046875,4341.6665039063,4393.4614257813,4098.5898437500,4406.4101562500,4407.5639648438,4392.8203125000,4390.7690429688,,,
3.5390625000,14,4424.4873046875,4312.8203125000,4357.6923828125,4392.8203125000,4092.3076171875,4315.2563476563,4110.2563476563,4345.3847656250,4390.0000000000,4097.6923828125,4410.5126953125,4411.1538085938,4399.2309570313,4395.6411132813,,,
3.5468750000,14,4417.8203125000,4315.7690429688,4348.3334960938,4392.8203125000,4090.6411132813,4312.8203125000,4109.7436523438,4342.9487304688,4382.5639648438,4097.5639648438,4407.6923828125,4406.7949218750,4402.1796875000,4396.2822265625,,,
3.5546875000,14,4405.6411132813,4312.6923828125,4332.5639648438,4378.0771484375,4090.7692871094,4305.8974609375,4108.2050781250,4332.9487304688,4371.4101562500,4098.4614257813,4400.2563476563,4394.3588867188,4397.5639648438,4391.4101562500,,,
3.5625000000,14,4393.3334960938,4303.4614257813,4320.0000000000,4352.4360351563,4092.4357910156,4297.0512695313,4106.0258789063,4321.1538085938,4363.8461914063,4100.2563476563,4393.7177734375,4380.0000000000,4387.0512695313,4382.6923828125,,,
3.5703125000,14,4387.0512695313,4294.6152343750,4318.4614257813,4329.3588867188,4093.7180175781,4292.1796875000,4103.9741210938,4318.0771484375,4369.8715820313,4102.4360351563,4393.7177734375,4372.1796875000,4377.0512695313,4373.9741210938,,,
3.5781250000,14,4389.2309570313,4292.9487304688,4328.0771484375,4325.1284179688,4093.3332519531,4294.8715820313,4102.4360351563,4329.6152343750,4390.8974609375,4104.2309570313,4401.7949218750,4375.0000000000,4373.4614257813,4368.5898437500,,,
3.5859375000,14,4396.5385742188,4298.9741210938,4341.6665039063,4345.0000000000,4091.6667480469,4302.4360351563,4101.6665039063,4348.5898437500,4415.5126953125,4105.2563476563,4413.0771484375,4384.1025390625,4377.3076171875,4367.3076171875,,,
3.5937500000,14,4401.2822265625,4304.8715820313,4348.3334960938,4374.4873046875,4090.7692871094,4307.3076171875,4101.5385742188,4359.4873046875,4424.8715820313,4105.1284179688,4419.3588867188,4389.7436523438,4383.3334960938,4367.4360351563,,,
3.6015625000,14,4396.5385742188,4302.1796875000,4341.1538085938,4389.2309570313,4091.9230957031,4302.0512695313,4101.9228515625,4349.8715820313,4408.4614257813,4104.4873046875,4414.3588867188,4383.8461914063,4384.2309570313,4364.7436523438,,,
3.6093750000,14,4381.6665039063,4290.2563476563,4321.7949218750,4375.0000000000,4095.3845214844,4286.4101562500,4103.0771484375,4321.6665039063,4373.0771484375,4103.8461914063,4398.8461914063,4366.5385742188,4375.6411132813,4356.7949218750,,,
3.6171875000,14,4363.8461914063,4277.8203125000,4300.1284179688,4341.4101562500,4100.1284179688,4268.5898437500,4104.6152343750,4290.6411132813,4339.2309570313,4103.7177734375,4380.6411132813,4346.9228515625,4360.6411132813,4345.0000000000,,,
3.6250000000,14,4351.7949218750,4274.3588867188,4288.0771484375,4310.6411132813,4104.1025390625,4259.1025390625,4105.8974609375,4274.3588867188,4325.3847656250,4104.1025390625,4369.4873046875,4335.2563476563,4347.1796875000,4334.1025390625,,,
3.6328125000,14,4349.3588867188,4281.1538085938,4290.1284179688,4298.5898437500,4106.5385742188,4262.3076171875,4106.2822265625,4277.9487304688,4333.8461914063,4104.3588867188,4368.8461914063,4334.8715820313,4341.4101562500,4328.0771484375,,,
3.6406250000,14,4352.3076171875,4290.3847656250,4299.4873046875,4304.1025390625,4107.5639648438,4271.4101562500,4106.1538085938,4291.2822265625,4349.4873046875,4104.2309570313,4374.1025390625,4340.0000000000,4342.3076171875,4326.0258789063,,,
3.6484375000,14,4352.8203125000,4292.6923828125,4304.6152343750,4313.7177734375,4107.4360351563,4274.4873046875,4105.6411132813,4297.9487304688,4354.3588867188,4103.8461914063,4375.7690429688,4340.3847656250,4344.3588867188,4323.7177734375,,,
3.6562500000,14,4346.5385742188,4284.3588867188,4298.7177734375,4315.0000000000,4106.7949218750,4264.6152343750,4105.2563476563,4289.8715820313,4342.6923828125,4103.4614257813,4368.3334960938,4330.6411132813,4342.0512695313,4317.0512695313,,,
3.6640625000,14,4335.2563476563,4270.7690429688,4285.2563476563,4306.5385742188,4106.0258789063,4245.7690429688,4105.2563476563,4272.8203125000,4324.2309570313,4103.4614257813,4355.1284179688,4314.2309570313,4335.0000000000,4307.3076171875,,,
3.6718750000,14,4325.0000000000,4261.9228515625,4273.8461914063,4296.6665039063,4106.1538085938,4229.7436523438,4105.2563476563,4260.7690429688,4314.7436523438,4103.7177734375,4347.3076171875,4301.5385742188,4328.0771484375,4301.0258789063,,,
3.6796875000,14,4321.4101562500,4264.6152343750,4272.9487304688,4294.1025390625,4107.6923828125,4226.0258789063,4105.1284179688,4263.7177734375,4321.9228515625,4103.7177734375,4353.0771484375,4301.1538085938,4326.1538085938,4304.8715820313,,,
3.6875000000,14,4325.6411132813,4276.0258789063,4281.7949218750,4299.2309570313,4110.3847656250,4234.3588867188,4104.8715820313,4278.3334960938,4338.5898437500,4103.7177734375,4369.4873046875,4313.0771484375,4329.4873046875,4317.8203125000,,,
3.6953125000,14,4333.3334960938,4286.7949218750,4291.7949218750,4303.4614257813,4113.8461914063,4245.5126953125,4105.1284179688,4290.8974609375,4348.8461914063,4103.5898437500,4382.5639648438,4327.0512695313,4333.3334960938,4331.1538085938,,,
3.7031250000,14,4337.4360351563,4288.5898437500,4293.8461914063,4297.9487304688,4117.1796875000,4249.1025390625,4106.2822265625,4288.8461914063,4341.5385742188,4103.5898437500,4379.1025390625,4331.6665039063,4332.6923828125,4335.0000000000,,,
3.7109375000,14,4334.6152343750,4280.6411132813,4286.2822265625,4282.9487304688,4119.1025390625,4242.6923828125,4107.9487304688,4273.7177734375,4320.5126953125,4103.7177734375,4358.5898437500,4323.7177734375,4327.4360351563,4326.9228515625,,,
3.7187500000,14,4327.0512695313,4268.7177734375,4276.1538085938,4267.8203125000,4119.1025390625,4233.5898437500,4109.2309570313,4259.1025390625,4301.1538085938,4103.7177734375,4333.9741210938,4310.7690429688,4321.7949218750,4315.1284179688,,,
3.7265625000,14,4321.2822265625,4259.3588867188,4272.8203125000,4263.3334960938,4117.8203125000,4232.1796875000,4109.4873046875,4258.4614257813,4296.5385742188,4103.7177734375,4321.0258789063,4303.3334960938,4321.1538085938,4311.1538085938,,,
3.7343750000,14,4322.3076171875,4256.1538085938,4280.7690429688,4272.0512695313,4117.0512695313,4242.4360351563,4108.7177734375,4272.3076171875,4307.4360351563,4103.7177734375,4326.2822265625,4307.3076171875,4327.8203125000,4321.5385742188,,,
3.7421875000,14,4330.8974609375,4259.4873046875,4296.2822265625,4286.5385742188,4118.2050781250,4258.0771484375,4107.4360351563,4290.2563476563,4324.6152343750,4103.7177734375,4344.1025390625,4320.1284179688,4339.6152343750,4342.5639648438,,,
3.7500000000,15,4342.9487304688,4268.4614257813,4311.7949218750,4297.9487304688,4121.0258789063,4270.6411132813,4106.6665039063,4302.4360351563,4339.1025390625,4103.7177734375,4362.4360351563,4335.2563476563,4352.1796875000,4363.2050781250,,,
3.7578125000,15,4353.3334960938,4280.7690429688,4321.9228515625,4304.6152343750,4123.9741210938,4277.4360351563,4106.9228515625,4307.3076171875,4348.7177734375,4103.7177734375,4373.0771484375,4347.4360351563,4361.5385742188,4373.3334960938,,,
3.7656250000,15,4358.4614257813,4292.4360351563,4325.6411132813,4311.1538085938,4125.0000000000,4282.3076171875,4107.9487304688,4310.0000000000,4356.5385742188,4103.7177734375,4375.5126953125,4353.7177734375,4366.1538085938,4370.6411132813,,,
3.7734375000,15,4358.0771484375,4298.8461914063,4325.7690429688,4320.2563476563,4123.2050781250,4288.0771484375,4108.3334960938,4314.8715820313,4364.2309570313,4103.7177734375,4374.2309570313,4354.2309570313,4367.1796875000,4361.0258789063,,,
3.7812500000,15,4354.1025390625,4296.6665039063,4324.7436523438,4326.4101562500,4120.2563476563,4292.4360351563,4107.4360351563,4319.7436523438,4368.7177734375,4103.7177734375,4374.3588867188,4349.8715820313,4366.1538085938,4353.0771484375,,,
3.7890625000,15,4348.5898437500,4286.0258789063,4322.4360351563,4321.5385742188,4118.9741210938,4289.7436523438,4106.1538085938,4319.1025390625,4365.1284179688,4103.7177734375,4376.6665039063,4342.4360351563,4362.5639648438,4350.8974609375,,,
3.7968750000,15,4343.5898437500,4271.9228515625,4317.6923828125,4305.7690429688,4120.7690429688,4279.6152343750,4105.8974609375,4310.5126953125,4352.9487304688,4103.7177734375,4379.3588867188,4334.1025390625,4355.7690429688,4353.5898437500,,,
3.8046875000,15,4341.1538085938,4262.4360351563,4311.5385742188,4290.0000000000,4125.5126953125,4268.8461914063,4106.9228515625,4298.3334960938,4340.2563476563,4103.9741210938,4380.6411132813,4328.0771484375,4347.3076171875,4357.9487304688,,,
3.8125000000,15,4342.9487304688,4262.1796875000,4307.4360351563,4286.6665039063,4131.0258789063,4265.1284179688,4108.2050781250,4291.2822265625,4337.5639648438,4104.1025390625,4381.4101562500,4326.7949218750,4341.6665039063,4361.4101562500,,,
3.8203125000,15,4347.6923828125,4268.9741210938,4307.5639648438,4299.6152343750,4135.5126953125,4268.7177734375,4108.8461914063,4292.9487304688,4347.3076171875,4103.8461914063,4382.3076171875,4328.5898437500,4341.4101562500,4361.9228515625,,,
3.8281250000,15,4350.1284179688,4274.8715820313,4308.9741210938,4319.6152343750,4137.4360351563,4270.2563476563,4108.3334960938,4297.5639648438,4359.3588867188,4103.3334960938,4380.8974609375,4327.9487304688,4342.8203125000,4356.5385742188,,,
3.8359375000,15,4345.2563476563,4272.3076171875,4305.8974609375,4332.3076171875,4136.2822265625,4260.2563476563,4107.1796875000,4294.1025390625,4357.9487304688,4103.2050781250,4372.4360351563,4318.9741210938,4339.1025390625,4343.5898437500,,,
3.8437500000,15,4332.8203125000,4260.6411132813,4296.2822265625,4328.8461914063,4133.9741210938,4238.8461914063,4105.7690429688,4276.9228515625,4335.6411132813,4103.5898437500,4355.6411132813,4301.7949218750,4327.3076171875,4326.9228515625,,,
3.8515625000,15,4319.2309570313,4246.0258789063,4284.8715820313,4311.1538085938,4132.9487304688,4217.3076171875,4104.7436523438,4252.0512695313,4301.2822265625,4104.3588867188,4337.3076171875,4284.4873046875,4312.4360351563,4314.4873046875,,,
